! Center RA: 05 30 56.41675,  Dec: +13 31 55.14955 (2000.0)
! Established model.
! Flux (Jy) Radius (mas)  Theta (deg)  Major (mas)  Axial ratio   Phi (deg) T \
! Freq (Hz)     SpecIndex
  0.455015      0.00000      0.00000 
  0.166763    0.0199999     -90.0000 
 0.0106490    0.0282842     -135.000 
0.00362187    0.0200000      0.00000 
0.00147011    0.0447213     -153.435 
0.00106681    0.0632455     -161.565 
 0.0108421     0.778203      64.0935 
0.00608743     0.796241      64.7223 
0.00352491     0.553173      77.4712 
0.00609721     0.572713      77.9052 
0.00249762     0.806226      66.6148 
0.00263726     0.814371      65.3231 
0.000798002     0.549181      79.5085 
0.00122873     0.787147      62.7839 
0.000172103     0.545894      81.5730 
0.00396704     0.568859      79.8753 
0.00119395     0.796492      61.5044 
0.000145828     0.543323      83.6598 
0.000141704     0.541479      85.7636 
0.00103517     0.540370      87.8789 
0.00103358     0.806226      60.2551 
0.00383250     0.816333      59.0362 
0.00134045     0.791202      69.2744 
0.00280752     0.560357      87.9546 
0.000451134     0.596657      76.4296 
0.000593776     0.601664      74.5778 
0.000851160      1.09179      61.5571 
0.000690537     0.607289      72.7585 
0.00557517     0.580345      88.0251 
0.000676773      1.10145      60.6422 
0.00251511     0.850882      60.4222 
0.00421992      1.11140      59.7436 
6.24381e-05     0.588218      72.1811 
0.000391489     0.569210      71.5651 
0.00170279     0.799250      58.2986 
0.000524625     0.550273      70.9065 
4.70738e-05     0.520385      87.7974 
0.000519907     0.500400      87.7094 
0.000796619     0.531413      70.2011 
0.00157232      1.12161      39.9364 
0.00101750      1.16516      39.4278 
0.000396608     0.966023      62.9044 
0.00251163      1.40585      50.1944 
0.00169817     0.768375      38.6598 
0.00208846     0.930376      64.5367 
0.00174908     0.921955      65.6589 
0.000884335     0.656049      37.5686 
0.000742911      1.18068      38.8114 
0.000530312     0.784092      37.7468 
0.00837762     0.628013      37.2348 
0.00157560     0.828010      37.1467 
0.00723468     0.913893      66.8014 
0.00262462      1.39313      50.8263 
0.00116192      1.24016      37.7939 
0.00527062     0.844038      36.3268 
0.000960913      1.25603      37.2348 
0.00260334      1.38058      51.4698 
0.00402186      1.28406      37.4054 
0.00190818     0.975295      61.8584 
0.00185800      1.36821      52.1250 
0.000353166      1.02215      59.4208 
0.00181076     0.895545      66.2974 
0.00200727     0.781025      87.0643 
0.00114679     0.782304      85.6013 
0.000390238     0.740270      88.4518 
0.000822559     0.740000      90.0000 
0.000178597     0.802247      85.7108 
5.76079e-05     0.803990      84.2894 
0.00292245     0.812158      80.0738 
0.000499784     0.740270      91.5482 
0.000430611     0.741080      93.0941 
0.00218743     0.742428      94.6355 
0.000363379     0.820244      91.3972 
0.000363695     0.820975      92.7927 
0.000783401     0.831865      80.3112 
0.000150002     0.822192      94.1849 
0.00525050     0.939149      63.4349 
0.000447140     0.984886      60.8324 
0.000107051     0.994786      59.8265 
0.000153976      1.01548      57.8750 
0.00370398     0.661211      93.4682 
0.00235104      1.27279      45.0000 
0.00177110     0.644050      36.1582 
0.000257455      1.01823      45.0000 
0.00267481      1.03247      44.2152 
0.00127111     0.660303      91.7357 
0.000465600     0.737564      40.6013 
0.00354416     0.254558      45.0000 
0.000265894     0.616117      35.7539 
3.93985e-05     0.752861      39.6107 
0.000535581     0.954149      33.0239 
0.000508790     0.600000      36.8699 
0.00195191     0.721388      43.8767 
0.00246067      1.04690      43.4518 
0.000827509      1.32801      37.0425 
0.00870147     0.240832      48.3664 
0.000582493     0.660000      90.0000 
0.000532480     0.970979      32.3807 
0.00169044     0.584123      38.0470 
5.11083e-05      1.28701      44.3704 
0.000339241      1.28701      45.6296 
0.000481897      1.30000      36.8699 
0.000338608     0.660303      88.2643 
0.000439974     0.987927      31.7595 
8.75004e-05     0.661211      86.5318 
0.00102917     0.682642      84.9575 
0.000539860      1.31605      36.3475 
1.49785e-05     0.667533      98.6156 
0.000318699     0.670820      100.305 
0.000206577      1.30108      45.0000 
0.000305548      1.00499      31.1593 
0.000752271     0.644050      53.8418 
0.00193792     0.656049      52.4314 
0.000758235      1.00419      44.1931 
0.00113946     0.887694      67.4794 
0.00246881     0.810432      74.2488 
0.000288536      1.01863      43.4089 
0.000134478     0.948262      62.3540 
0.000264831     0.668431      51.0725 
4.63804e-05     0.636553      46.2730 
0.000212571     0.681175      93.3665 
0.00226616      1.02215      30.5792 
0.000198067     0.538145      41.9872 
0.000416386     0.523450      43.4518 
0.000220059     0.680294      91.6847 
0.000345355     0.551725      43.5312 
0.000347228     0.648999      56.3099 
0.000671001     0.509117      45.0000 
0.00110047     0.660303      54.8658 
0.000186542     0.680000      90.0000 
0.000138481     0.680294      88.3153 
0.00181983     0.495177      46.6366 
0.000240431      1.28763      46.8882 
0.00126060      1.06151      42.7094 
0.000123249     0.681175      86.6335 
0.000582810      1.27405      47.5448 
0.000101094     0.662722      95.1944 
0.000137928     0.652993      40.0303 
7.88279e-05     0.664831      96.9112 
0.000620165     0.481664      48.3665 
0.000347356     0.912360      63.9967 
0.000403407     0.903770      65.1363 
0.000324404     0.638122      57.8043 
8.25089e-05     0.679412      42.6141 
0.000482119     0.861626      68.1986 
0.000148507     0.655134      58.7363 
1.72800e-05     0.640312      38.6598 
0.00576203      1.08259      64.8552 
0.00605258      1.07331      63.4349 
0.00222450     0.680294      65.6954 
0.000307980      1.08240      62.4880 
0.000948345     0.698570      66.3706 
0.000215951      1.07424      61.0490 
0.000379696      1.07703      58.6713 
0.000374963      1.09124      63.9046 
0.000111725      1.08757      57.7712 
0.00138583      1.09836      56.8887 
0.000207190      1.10073      65.2976 
0.000377734      1.10923      64.3590 
0.000248588     0.644981      60.2551 
0.000275689     0.635295      61.8214 
0.000344077     0.460435      55.6197 
0.000620447     0.715542      26.5651 
0.000860132      1.25936      46.9306 
0.00103061     0.449444      57.7244 
0.00169445     0.733485      25.8664 
0.00109968     0.800000      90.0000 
0.000143133     0.439090      59.9314 
0.000337139     0.710211      80.2724 
0.00165246     0.707107      81.8699 
7.65075e-05     0.690507      79.9920 
0.000622006     0.687314      81.6341 
0.000600435      1.24579      47.6026 
0.000540308     0.640312      51.3402 
0.000626026     0.432666      56.3099 
0.000174361      1.26063      48.2155 
0.000254263     0.684690      83.2902 
9.09154e-05     0.652993      49.9697 
0.00194054     0.837616      33.3106 
0.00339032     0.269072      41.9872 
0.000833761      1.23110      46.9749 
0.000600468     0.816088      72.8973 
0.000267295     0.729932      80.5377 
0.000310549     0.847585      70.7100 
0.000947442     0.700000      36.8699 
0.000699278      1.21754      47.6630 
0.00106853     0.854400      69.4440 
0.000197289     0.882043      32.9694 
0.000504371     0.898888      32.2756 
0.000117882      1.18929      47.7263 
0.000146276     0.594643      42.2737 
0.000119062     0.609590      41.0091 
8.61608e-05     0.956034      52.6507 
0.000140618     0.612209      38.3675 
0.000407956     0.968298      51.7098 
0.000350895     0.704557      83.4802 
7.90494e-05     0.580000      43.6028 
6.00229e-05     0.632456      34.6952 
3.82181e-05     0.565685      45.0000 
0.000625612     0.652993      62.6501 
0.000621870     0.694262      78.3664 
0.000241315     0.226274      45.0000 
0.000992264     0.212603      48.8141 
0.000581011     0.972008      53.3659 
0.000377470     0.713863      78.6901 
0.000212176     0.984073      52.4314 
0.000155258      1.01213      52.2243 
0.00170600     0.600000      53.1301 
0.000629201     0.937230      50.1944 
0.000154710     0.952680      50.9645 
0.000168407     0.584123      51.9530 
9.05904e-05     0.556058      52.3058 
0.000308783     0.965401      50.0425 
0.000989714     0.404969      57.0948 
0.000406162     0.421901      58.5704 
5.13605e-05     0.612209      51.6325 
0.000774386     0.572014      53.5308 
0.000531541     0.388330      55.4915 
0.000263928     0.372022      53.7462 
0.00123049     0.411825      60.9454 
0.000714791      1.10454      31.6755 
1.79701e-05     0.994786      30.1735 
0.000581276     0.977548      30.7627 
6.97538e-05     0.493964      58.2405 
0.000826896     0.427551      100.784 
0.00135110     0.404475      98.5308 
0.000231590     0.401995      95.7106 
0.000186698     0.394462      59.5345 
2.86590e-05     0.377359      57.9946 
5.84473e-05     0.256125      38.6598 
0.000577230      4.53436      8.88066 
-0.00150277      2.91204     -105.945 
-0.000795546      1.39671     -29.1343 
0.00150353      5.80169      1.38273 
0.00181235      4.53131      8.63080 
-0.000308779      1.37928     -29.5388 
-0.00169346      1.87243     -156.721 
-0.000525415      6.80294      125.185 
-0.00119703      5.94215      88.4571 
0.000257071      4.50289      97.9142 
-0.00119784      3.75217     -52.5804 
0.00137019      6.31506      115.916 
-0.00130843      1.36953     -28.8108 
0.00123952      2.27438     -113.860 
-0.000524567      5.43323      43.2101 
-0.000941871      3.35440     -152.671 
-0.000207348      3.75601     -53.0081 
0.000214288      5.70687     -2.81227 
-0.000253441      4.83959     -132.990 
0.000638059     0.410366     -46.9749 
-0.000247073      1.29074     -77.4712 
0.000416597      4.56946      29.9315 
0.00192180      4.54004      142.878 
0.00115623      6.12800      22.0445 
0.000274794      3.86435     -161.284 
-0.000381835      6.79144      125.047 
0.00132003      5.09313      46.5911 
-0.000590395      2.30764      26.7871 
-0.00206777      6.15461      29.8142 
-0.000551261      2.89841     -106.434 
0.000377806      4.57611      36.4692 
0.000596373      3.82335     -177.602 
0.000194447      4.23792      70.7100 
4.03001e-05      5.68792     -3.02338 
-0.000271793      5.35137     -24.7452 
0.000189348      5.66794     -3.03404 
0.000470469      4.57690      29.5896 
-0.000548025      3.56746      80.6433 
-0.000290864      4.86785     -133.002 
-0.000825794      1.04000     -67.3801 
-7.59461e-05      5.31146     -20.9601 
0.000218947      6.66168      44.1485 
-0.000218638      3.90988     -115.123 
-0.000203187      1.49893      161.323 
-0.000667297      3.37218     -152.827 
-0.000883365      1.48000      161.075 
-0.000375027      1.97960      18.2519 
-0.000247253      5.31865     -21.1613 
-3.67023e-05      5.36954     -24.6559 
0.00148855      5.78170      1.38752 
-0.000130696      3.74401     -53.2525 
-0.000674644      5.37792     -24.8495 
0.000396819      6.25246      124.707 
-7.09337e-05      5.79424      77.6428 
0.000163782      4.23136      70.9656 
0.000135856      4.08554     -141.559 
0.000167907      1.28577     -164.667 
0.000227633      3.85798     -161.565 
0.00105909     0.425206     -48.8141 
0.00189145      5.37587     -9.63754 
0.000935826      4.45358     -40.6292 
-0.00121680      3.89179     -115.248 
-0.000437189      2.18586      94.1977 
-3.45805e-05      4.41380      133.531 
0.000201132      3.58156     -102.251 
-0.000336510      3.56427      80.9605 
0.000453889      5.54437     -45.8769 
3.41085e-05      6.66216      43.9053 
-3.39872e-05      5.81378      77.6850 
-0.000621323      4.38552      133.522 
0.000333242     0.625140     -172.648 
-0.000654448      6.85023      50.6871 
-9.88929e-05      4.98197      137.278 
0.000130808      3.80337     -177.589 
0.000507557      5.08004      70.2096 
0.000117880      6.64777      44.0248 
-0.000300653      1.28655     -78.3407 
-3.31578e-05      5.78999      77.8361 
-0.000716554      3.42584      115.967 
-9.53169e-05      1.91050      100.251 
-0.000876270      3.38148     -88.3054 
-6.51210e-05      4.89612     -133.014 
0.00244371      5.09439     -141.375 
0.00192674      3.60111     -102.184 
-0.000440980      5.80954      77.8777 
-0.00161815      4.96729      137.121 
0.000150457      4.36811     -65.6646 
0.000543920      4.59430      29.4664 
-3.15760e-05      4.92439     -133.025 
9.33772e-05      3.78338     -177.576 
-0.000147425      2.00639     -156.501 
-3.12482e-05      2.54692     -103.163 
0.000259532      4.86037      61.2202 
0.000231570      5.86467      48.3178 
-3.08872e-05      4.95266     -133.036 
0.000499836      6.42921      56.8043 
-6.05925e-05      1.45890      146.746 
-8.94018e-05      4.96633     -133.205 
0.000117634      3.76340     -177.563 
-0.000470231      5.94273      88.2643 
3.00809e-05      2.74729     -94.1748 
-0.000830498      4.51956     -5.33216 
-2.99438e-05      6.77997      124.909 
-0.000115305      5.91692      112.665 
0.000605342      2.71426      101.476 
-0.000576817      1.44222      146.310 
0.000495787      2.72595     -93.7861 
-0.000138665      1.86462     -157.286 
-0.000641469      1.89452      100.954 
2.91511e-05      4.05744     -141.605 
-0.000972421      3.06777     -157.782 
-0.000561895      4.12844     -66.2912 
0.000222698      2.12302      42.7094 
-0.000288686      4.99460     -133.215 
0.000107872      3.88330     -161.378 
-0.000241274      1.35204     -29.2192 
0.000112647      3.66284     -134.779 
0.000448339      6.14654      21.9745 
0.000137035      5.57197      71.3699 
0.000282963      3.51135     -137.770 
0.000441168      3.74342     -177.550 
-0.000629972      2.16592      94.2364 
-0.000382577      1.67726     -81.7733 
-5.40309e-05      6.77507      125.144 
0.000404561      5.15321      123.443 
-0.000428114      2.92226      168.152 
0.000235174      3.18823      156.329 
0.00155661      5.09133     -128.941 
5.19192e-05      4.06989     -141.384 
0.000489495      3.63456     -134.777 
0.000268678      4.35991     -65.9041 
0.000345322      4.58803      36.6701 
5.23217e-05      1.30507     -164.899 
-0.000197987      3.72543      76.3368 
-7.77051e-05      3.68049      111.686 
0.000153589      4.52836      8.38061 
-5.35635e-05      2.14401     -126.656 
-7.60673e-05      1.99860      18.0723 
0.000695764      3.72344     -177.537 
0.000124059      2.26636     -113.398 
0.000245547      4.87003      61.0140 
-7.57540e-05      2.02475     -156.727 
0.000405073      5.59092      71.4354 
0.000434028      3.59694     -101.872 
0.000346363      3.26300      177.541 
-4.99145e-05      5.90925      112.486 
-0.000493740      1.49265      162.051 
-2.61432e-05      2.16009     -126.339 
-9.89158e-05      2.32551      26.5651 
-0.000123059      4.82498     -133.152 
-0.000988324      6.37501      38.6317 
-0.000255660      2.15601     -127.082 
0.000468102      5.06806      69.9203 
-0.000180454      1.49933     -9.21103 
0.000385987      5.55039      5.99820 
4.99347e-05      5.86638      48.5936 
0.000162537      4.62973     -18.9046 
0.000226155      5.53046     -46.0256 
0.000263031      2.26927      112.270 
0.000217344      4.55601      143.029 
0.000619667      5.68690     -2.82215 
-0.000231241      1.33462     -29.6384 
-0.000320412      5.33730     -21.0838 
0.000571070      3.20656      156.473 
4.57382e-05      3.39882     -63.4349 
2.41613e-05      4.37858      97.6119 
0.000206039      5.10690      46.4281 
0.000496486      4.34902      3.69139 
6.89703e-05      3.87696     -161.659 
-0.000132651      3.73208     -53.4986 
0.000125854      4.35876      97.6468 
2.36686e-05      4.46013     -124.403 
0.000227273     0.644981     -172.875 
-0.000180814      6.76358      125.006 
0.000305276      2.16231     -2.65069 
0.000819255      5.49181      137.361 
0.000114904      4.44886     -124.190 
-0.000154421      3.83020      172.801 
-4.53314e-05      3.65453      111.510 
0.000175521      4.29344      33.9862 
-2.29406e-05      2.04313     -156.949 
-0.000650350      6.02030    -0.571035 
-8.61552e-05      2.33452      27.0041 
0.000511974      3.98181     -159.107 
0.000203212      3.48310     -137.793 
-0.000263509      2.94598      167.851 
-0.000109160      3.83885     -61.6992 
-0.000346513      5.02287     -133.225 
-8.64054e-05      1.05849     -67.7965 
0.000397370      4.43234     -124.335 
-0.000231473      3.77810     -100.061 
0.000429886      4.61172      29.3442 
0.000166652      4.87975      60.8085 
0.000106354      2.27693      112.736 
-0.000235283      1.67451     -82.4506 
-0.000757326      1.41450      146.535 
-0.000251697      3.45138     -122.217 
-0.000390669      1.82428      52.1250 
-0.000289732      4.79671     -133.141 
0.000220091      6.16510      21.9050 
-0.000263079      5.93114      68.0192 
0.000280372      3.67614     -163.241 
7.97600e-05      5.20327      58.9985 
-0.000287114      1.31727     -30.0686 
-0.000201125      2.87235      160.051 
0.000104008      5.46004     0.209874 
0.000205664      2.72470     -93.3665 
2.10440e-05      4.62385      58.4412 
-0.000553919      2.14597      94.2758 
6.20922e-05      2.40150      102.995 
0.000140158      6.41829      56.9537 
0.000525651      5.61626      71.3070 
0.000195243      7.05705      44.6555 
0.000412560      4.63435      58.2305 
8.23572e-05      5.46293     -5.25140 
-0.000377745      3.85004      172.838 
0.000347155      5.47828      137.515 
0.000133278      2.15629     -40.4860 
4.09991e-05      4.78280      57.6391 
-5.97228e-05      3.64725      111.218 
0.000588594      2.18229     -2.62640 
-0.000288796      3.82126     -61.5571 
0.000119386      4.63625     -19.1384 
-0.000484157      3.80132     -72.2324 
0.000467361      2.28324      161.089 
0.000499608      4.75209      44.3179 
-0.000154921      1.06621     -66.8014 
0.000318533      2.39708      102.529 
-3.89359e-05      5.94337      88.0716 
0.000494127      5.39896     -9.81126 
0.000588041      3.78904     -79.0459 
0.000910768      5.44489     -5.48024 
-0.000515978      3.38095     -88.6441 
0.000903544      2.48395      166.971 
0.000542183      5.10392     -129.116 
-0.000580191      1.87489      101.070 
-0.000543860      3.12167      27.0576 
-7.48067e-05      1.51908     -9.09028 
0.000128658      4.43842     -40.7973 
0.000372634      4.76592      57.5104 
3.96588e-05      5.78221      1.58564 
-9.73408e-05      3.46208     -122.497 
-0.000367476      5.38635     -25.0426 
0.000113931      2.30313      113.003 
0.000129266      5.44004     0.210646 
0.000329460      5.80221      1.58017 
-0.000150436      3.79779     -100.008 
0.000404149      5.57028      5.97670 
-0.000231423      4.49964     -5.35582 
1.93802e-05      2.10836      43.0780 
0.000672684      4.32906      3.70843 
5.58337e-05      5.89135      48.0272 
0.000269996      3.24327     -66.7550 
5.30678e-05     0.440454     -50.5275 
1.91443e-05      4.30465      34.2069 
-0.000768028      5.95718      67.9128 
7.40218e-05      3.46092     -178.675 
-1.90096e-05      3.78893     -51.8598 
0.000462427      3.15702     -16.9426 
-0.000358187      3.44523     -122.675 
0.000291430      4.61736     -19.2198 
0.000433230      3.84255     -177.912 
7.32417e-05      5.72772     -22.8045 
1.86872e-05      3.90226     -161.472 
6.92050e-05      6.64831      43.7811 
-1.86589e-05      4.15480     -66.1495 
7.13734e-05      6.40153      56.8561 
-0.000257603      4.17042      16.4361 
1.84647e-05      3.67042     -163.540 
-0.000105609      2.89800      159.814 
-7.13930e-05      2.74634     -12.6193 
-0.000180101      3.62138      111.038 
0.000412067      3.65125     -163.451 
0.000545797      3.22490      156.615 
7.04241e-05      5.35649      131.367 
-3.59229e-05      3.47264      65.5014 
-0.000283762      2.71662      30.5297 
0.000400467      7.07129      44.5416 
-1.79269e-05      6.87674     -29.2488 
-0.000199358      5.84086      89.0190 
1.79039e-05      3.77534      5.16695 
0.000202284      3.79352      4.83890 
-0.000170251      6.85930     -29.3305 
-0.000178562      3.79436     -99.7106 
0.000213319      5.73550     -22.9887 
-0.000209749      3.49085      65.6375 
-0.000495277      1.81207      52.6242 
3.47483e-05      3.44093     -178.668 
0.000434492      6.98413      38.8392 
0.000101246      5.90474      47.8830 
6.69604e-05      2.71831      101.889 
-6.48453e-05      3.68782      40.6013 
-0.000203149      3.08629     -157.923 
-1.71964e-05      3.86021      90.5937 
-9.65922e-05      1.67200     -83.1300 
3.27312e-05      2.17154     -40.1434 
6.74806e-05      4.61944      29.0064 
1.70621e-05      5.15895      123.136 
0.000389018      5.82220      1.57475 
-1.70163e-05      2.75078     -13.0258 
4.93942e-05      5.17583      59.0742 
-8.19235e-05      6.47636      127.471 
-0.000405719      3.79526     -72.5199 
4.93637e-05      5.42004     0.211423 
3.20674e-05      6.18366      21.8358 
-0.000186323      3.83885     -84.3191 
0.000237830      5.62270      71.1139 
-0.000187652      3.84021      90.5968 
-1.67242e-05      3.80132     -51.6227 
1.66699e-05      5.55251      6.20345 
0.000192545      4.59430     -29.4664 
-6.50221e-05      2.73130     -13.1204 
0.000186153      5.34330      131.206 
1.65859e-05      2.31102      113.459 
-0.000201891      3.00566      159.756 
0.000169473      3.42053     -178.995 
-9.21319e-05      3.43465      116.267 
-6.51708e-05      4.71020      104.508 
8.01877e-05      4.00360      21.6951 
6.18955e-05      4.61602      36.7210 
0.000216422      4.63694      28.8866 
-6.21739e-05      1.30000     -30.5102 
9.58352e-05      3.79289     -78.7493 
4.81075e-05      4.41035     -141.259 
-0.000184186      5.00831     -133.382 
-0.000217762      6.84187     -29.4125 
-6.25342e-05      1.53883     -8.97263 
-6.34850e-05      4.29535     -151.645 
7.81614e-05      5.91818      47.7393 
3.12110e-05      4.34166      97.9435 
6.17579e-05      2.72360     -92.9464 
-4.57154e-05      5.34453     -21.2838 
-0.000211765     0.778974      60.8025 
-0.000196746      4.71525      104.744 
0.000136144      3.81345      4.81355 
6.12867e-05      2.65126      106.658 
6.13670e-05      4.59635      58.5232 
0.000151560      2.97725     -173.830 
-1.57231e-05      3.81376     -51.3871 
-3.10942e-05      4.56004    -0.251295 
7.57152e-05      4.66759      11.1173 
-0.000105476      3.80005     -90.3016 
-7.51754e-05      6.48854      127.612 
0.000134893      4.85576     -14.5514 
6.07954e-05      4.57690     -29.5896 
-0.000119923      6.39065      38.5198 
-0.000105087      4.81041     -133.315 
-7.43947e-05      2.72683      30.8917 
0.000105082      4.42289     -141.057 
0.000104414      3.97764      21.5339 
1.53849e-05      5.42015     0.422840 
0.000134039      5.75392     -22.9109 
-2.99187e-05      6.06162     -23.9433 
-1.52817e-05      3.83082     -61.2940 
8.89164e-05      2.41238      101.962 
1.51842e-05     0.428019     -52.5946 
8.88039e-05      4.60196     -29.1272 
-4.44556e-05      4.54000      0.00000 
-8.86923e-05      7.77818      45.0000 
-2.96662e-05      2.89993      65.5560 
-4.41486e-05      5.84123      88.8229 
-2.96309e-05      4.31296     -151.771 
5.90617e-05      4.00050     -159.209 
2.96640e-05      2.35091     -80.6979 
1.49615e-05      2.70296      102.391 
1.49337e-05      5.64273      44.8564 
2.93914e-05      5.64163      71.1797 
4.42011e-05      6.26642      16.1212 
-4.40438e-05      3.81329     -61.1497 
4.39774e-05      4.68683     -26.3464 
7.31476e-05      2.06456      144.462 
1.48384e-05      5.64287      44.5692 
-1.47802e-05      3.81072     -50.9645 
-7.29442e-05      6.82446     -29.4950 
1.47430e-05      6.17625      21.6636 
1.47358e-05     0.664831     -173.089 
4.37606e-05      5.65692      44.7135 
2.91001e-05      5.81859      18.4349 
-1.46166e-05      4.36371      92.3641 
-1.45709e-05      1.66973     -83.8114 
1.44452e-05      2.34776     -81.1796 
-1.44121e-05      1.08462     -67.2176 
