! Center RA: 08 31 48.87696,  Dec: +04 29 39.08579 (2000.0)
! Established model.
! Flux (Jy) Radius (mas)  Theta (deg)  Major (mas)  Axial ratio   Phi (deg) T \
! Freq (Hz)     SpecIndex
  0.199877      0.00000      0.00000 
  0.111057    0.0199999     -90.0000 
0.00707680    0.0447213     -116.565 
 0.0190963    0.0632455     -108.435 
0.000127533     0.120000      90.0000 
0.00303077     0.703420      75.1735 
0.00118908     0.145602     -105.945 
0.000212344     0.747262      74.4759 
0.000673636     0.772010      73.4429 
0.00175903     0.141421     -98.1301 
0.000258638     0.816088      72.8973 
0.000395831     0.841190      71.9958 
0.000287890     0.910824      70.7693 
6.83209e-05     0.936376      70.0169 
6.69879e-05      1.03247      68.4047 
0.000193170      1.05849      67.7965 
6.19647e-05     0.631506      79.0459 
0.000647709      1.08462      67.2176 
5.90967e-05     0.543323      83.6598 
0.000111166     0.480417      87.6141 
5.41057e-05     0.140000     -90.0000 
0.000105128     0.144222     -33.6900 
0.000104477     0.500400      87.7094 
0.00113363     0.873155      69.9048 
0.00947830     0.621289      86.3086 
0.000125969     0.898888      69.1455 
0.000240151     0.932309      67.2856 
0.000225749     0.958541      66.6444 
0.000198871     0.984886      66.0375 
0.000206674     0.993177      64.9831 
0.000195408      1.01980      64.4400 
0.000184926      1.04652      63.9246 
0.000259703      1.05546      62.9494 
0.000390922      1.08240      62.4880 
0.000212321      1.09179      61.5571 
0.000381915      1.11893      61.1443 
0.000280090      1.14612      60.7512 
0.000295611      1.15603      59.8863 
0.000224186      1.08407      52.4959 
4.21042e-05      1.17337      60.3763 
0.000866406     0.950789      67.7510 
0.000190468     0.976934      67.1094 
0.000174245      1.01134      65.4623 
0.000243429      1.03788      64.9164 
0.000224041      1.06452      64.3978 
0.000206734      1.07331      63.4349 
0.000252005      1.10018      62.9691 
0.000281605      1.12712      62.5256 
0.000295893      1.15412      62.1027 
4.53400e-05      1.18119      61.6992 
0.000211712      1.16362      61.2324 
0.000325792      1.19080      60.8519 
3.23331e-05      1.21803      60.4885 
0.00106589      1.02157      66.9487 
0.000145475      1.00319      66.5014 
0.000133740      1.02956      65.9245 
0.000245643      1.05603      65.3764 
0.000167228      1.08259      64.8552 
0.000203094      1.10923      64.3590 
0.000225973      1.13596      63.8861 
0.000236311      1.16276      63.4349 
0.000235592      1.18962      63.0042 
0.000172045      1.21655      62.5924 
5.38522e-05      1.19883      62.1524 
5.03051e-05      1.22589      61.7626 
0.000267054     0.860233      54.4623 
2.40147e-05      1.24354      62.1985 
0.00126609      1.09252      66.2505 
5.05000e-05      1.11893      65.7256 
9.69681e-05      1.13719      66.1398 
0.000179084      1.16362      65.6375 
4.19081e-05      1.17201      64.7468 
0.000157345      1.19013      65.1576 
7.29064e-05      1.19867      64.2900 
0.000135460      1.21672      64.6986 
0.000122920      1.22540      63.8532 
0.000111747      1.24338      64.2593 
0.000125792      1.25220      63.4349 
9.06989e-05      1.27012      63.8384 
6.28364e-05      1.27906      63.0343 
1.98214e-05      1.29692      63.4349 
0.00112409      1.18186      66.0375 
0.000818395     0.601332      86.1859 
0.000208465      1.20830      65.5560 
0.000233797      1.23483      65.0952 
0.000101033      1.26143      64.6538 
0.000111690      1.27953      65.0372 
0.000111436      1.30614      64.6121 
0.00123088      1.17388      66.9296 
0.000363208      1.20017      66.4253 
0.00133312     0.835225      73.3008 
7.85403e-05      1.21852      66.8014 
0.000256520      1.24483      66.3179 
0.000335365      1.27122      65.8545 
1.69292e-05      1.29769      65.4099 
0.000251546      1.10309      67.6199 
0.000502299      1.12925      67.0679 
2.93810e-05      1.15551      66.5410 
0.000160589      1.31590      65.7723 
0.000150896      4.16120      1.37704 
0.00152431      4.73865     -46.1971 
0.000144632      6.88270     -28.6503 
7.43922e-05      6.28118      118.115 
-0.000490115      2.64008      61.4935 
0.00393935      4.16173      1.65230 
-0.00244816      4.32005     -112.885 
0.00194435      4.12354     -96.1254 
0.000140197      5.80734      7.32082 
0.00116009      5.82975      7.49073 
-0.000492588      3.58240      106.209 
-0.000809446      2.62252      61.2849 
-0.000721776      3.56887      106.607 
-0.000657086      5.46619     -47.9660 
-0.000952746      1.14909     -58.5232 
0.000200881      6.88448     -29.0223 
0.000743781      4.14343     -96.0959 
-0.000299447      3.55550      107.008 
0.000968475      5.85221      7.65934 
-0.000739120      5.46480     -47.6699 
0.000115069      2.47935     -162.150 
-4.14516e-05      2.60500     -128.454 
-0.000153118      1.04346      12.1715 
-0.000364378      3.57463      106.914 
-7.76867e-05      2.63310     -128.524 
0.000220776      4.72424     -46.0292 
-0.000283050      2.64877     -128.254 
-0.000291089      2.72382      119.954 
-0.000660115      1.14280     -57.1443 
0.000318165      5.43529      137.386 
-0.000374803      3.56140      107.316 
0.000224805      2.45422     -162.451 
0.000308183      5.43654      137.684 
-5.79568e-05      2.60500      61.0736 
-0.000242412      4.34626     -113.025 
-0.000107195      5.56938      38.1457 
-0.000135921      2.73130      119.381 
0.000470095      4.14135     -95.8207 
0.000331236      5.87473      7.82666 
0.000303181      6.59724      52.0184 
7.97374e-05      4.16236      1.92750 
-0.000434988      5.47960     -47.8107 
-2.67520e-05      3.41585     -17.3740 
0.000209186      4.18306      2.19207 
0.000235870      5.45135      137.825 
-2.55944e-05      2.57783      61.2476 
-0.000277723      3.58050      107.220 
2.52607e-05      4.71037     -46.2042 
-7.33508e-05      7.55322      43.9272 
-7.39505e-05      4.30706      18.6874 
0.000249294      4.16159      57.7611 
-0.000182995      1.13719     -55.7510 
-9.33716e-05      4.28173      18.5196 
0.000113782      5.48864      84.1440 
-4.65307e-05      7.53936      43.8177 
-0.000109869      7.56764      43.8221 
0.000170211      6.62532      51.9885 
-0.000255775      3.56741      107.622 
0.000150723      6.27697      76.3623 
-0.000211196      4.25643      18.3498 
0.000105361      5.18015     -52.6877 
-9.98692e-05      1.13225     -54.3447 
0.000520814      4.13937     -95.5453 
0.000496804      6.27229      76.5398 
0.000329100      5.16062     -52.2419 
6.00694e-05      4.13401      57.8477 
5.88396e-05      4.20386      2.45403 
-2.01975e-05      5.43812      116.659 
-0.000774850      6.67895      65.9678 
-5.94886e-05      4.23745      18.4349 
-3.96313e-05      5.42918      116.471 
-0.000208773      4.21217      18.2629 
-5.69019e-05      5.43824      116.188 
7.56016e-05      4.15095      57.9946 
-9.44474e-05      4.31231     -112.640 
-3.76251e-05      1.12801     -52.9269 
-0.0212723      6.67083      66.1247 
-5.48811e-05      4.28616     -112.496 
7.34343e-05      4.99267      145.610 
-0.000125703      2.76471      118.048 
7.24425e-05      4.17852      57.9074 
-0.000126260      4.18693      18.0888 
0.000652646      4.13749     -95.2697 
0.000300574      5.00400      145.421 
-0.000106876      3.70086      88.7614 
5.34876e-05      5.14482     -52.1055 
3.54894e-05      4.57266      94.2642 
1.76977e-05      4.19547      58.0525 
-0.000139646      4.16173      17.9125 
-0.000275271      7.65208      52.8605 
-3.50338e-05      4.26005     -112.351 
0.000104028      4.59117      93.9967 
-0.000188249      3.68087      88.7546 
1.74814e-05      4.22303      57.9659 
0.000486194      6.26766      76.7176 
3.46991e-05      5.12905     -51.9683 
-3.46029e-05      2.77308      117.489 
0.000337806      4.25060      57.8803 
-3.36768e-05      5.48106     -48.1060 
-5.11545e-05      4.27855     -112.249 
-6.81218e-05      5.17088      67.0051 
0.000219892      5.01538      145.233 
-3.41465e-05      4.15562      17.6501 
 0.0162162      4.13570     -94.9937 
8.49475e-05      4.31356     -128.411 
0.000124960      4.27818      57.7959 
3.38414e-05      4.60977      93.7314 
-1.69577e-05      4.13657      17.7341 
1.69364e-05      5.11332     -51.8302 
0.000267563      4.32268      57.8541 
3.38108e-05      4.29791     -128.577 
-5.04534e-05      4.13052      17.4699 
-0.000729517      7.64003      52.9801 
-5.02915e-05      4.25248     -112.102 
0.000117343      4.26980     -128.534 
-6.67500e-05      5.18930      67.0914 
3.35044e-05      4.35026      57.7712 
3.33738e-05      4.62973      93.7153 
-8.31195e-05      3.66087      88.7478 
-8.28404e-05      4.10546      17.2874 
0.000165620      5.02681      145.045 
0.000165636      4.25417     -128.702 
3.32360e-05      4.37785      57.6894 
-1.66009e-05      4.32315     -112.294 
6.59790e-05      4.64844      93.4533 
-1.65491e-05      4.36775     -112.337 
0.000264288      4.42235      57.7474 
-1.64763e-05      5.20773      67.1770 
-1.64751e-05      4.39386     -112.479 
0.000347641      6.26310      76.8957 
0.00888221      4.13401     -94.7176 
1.65292e-05      7.01113     -31.4683 
-8.24364e-05      3.64088      88.7410 
0.000115483      7.02160     -31.6075 
-4.93878e-05      5.23393      67.0601 
-0.00483908      6.66276      66.2820 
0.000181571      7.03210     -31.7463 
-4.94846e-05      4.08044      17.1027 
-4.95399e-05      4.46462     -112.659 
-4.95068e-05      4.75954      77.1317 
4.94900e-05      5.03829      144.859 
4.94943e-05      4.66725      93.1934 
1.64676e-05      4.22606     -128.660 
-3.29619e-05      5.25235      67.1452 
0.000297987      7.04264     -31.8847 
3.30232e-05      4.21046     -128.830 
-8.27389e-05      3.62088      88.7340 
-3.31204e-05      5.61843     -137.164 
-6.62436e-05      4.07460      16.8339 
3.31397e-05      4.68615      92.9357 
-1.65368e-05      4.77904      77.1851 
9.99897e-05      4.18234     -128.788 
-4.98552e-05      5.63205     -137.015 
0.000317616      7.05323     -32.0226 
-3.32001e-05      4.80300      77.0054 
1.65750e-05      5.04983      144.673 
4.99200e-05      3.56090      165.027 
-6.66602e-05      3.60089      88.7270 
8.39672e-05      4.43928      57.8852 
-0.000847371      7.62800      53.1001 
1.66599e-05      4.70612      92.9232 
-0.000325499      5.71853     -4.61387 
-1.66917e-05      5.64571     -136.866 
-1.67084e-05      4.04969      16.6450 
3.34088e-05      3.56612      164.717 
-3.35705e-05      5.65940     -136.718 
5.05904e-05      4.35807      136.860 
-6.76769e-05      3.58089      88.7199 
0.000498711      7.04693     -32.2467 
1.68320e-05      4.72512      92.6686 
-1.68511e-05      5.27079      67.2296 
0.000136430      4.37177      136.668 
-1.69197e-05      4.04401      16.3736 
-1.69901e-05      5.67313     -136.571 
-0.000583542      5.71696     -4.41408 
1.70620e-05      3.58541      164.801 
-3.44456e-05      5.31541      67.1977 
0.000268639      4.41171      57.9671 
-3.42402e-05      3.56090      88.7127 
1.71223e-05      4.74422      92.4161 
-3.44390e-05      5.68690     -136.425 
1.72468e-05      3.59071      164.493 
-3.45421e-05      3.87092      103.749 
0.000126253      4.38552      136.478 
-1.72437e-05      3.52051      89.0235 
-1.73216e-05      4.03842      16.1013 
-3.48232e-05      3.50051      89.0179 
-5.23919e-05      3.89035      103.679 
-8.88051e-05      5.70070     -136.279 
-5.29444e-05      3.92459      103.257 
3.51929e-05      4.39877      135.921 
-3.52953e-05      3.48052      89.0122 
0.00636261      7.05762     -32.3840 
0.000107581      4.41271      135.735 
-7.12729e-05      3.94406      103.191 
-3.58386e-05      3.46052      89.0065 
1.78900e-05      3.60721      163.575 
3.65435e-05      4.15423     -128.746 
-0.000108690      3.96353      103.125 
1.79691e-05      4.76340      92.1656 
1.79811e-05      3.61292      163.270 
-5.44887e-05      3.44052      89.0008 
0.000167459      4.42669      135.549 
-9.29955e-05      5.71454     -136.134 
1.82757e-05      3.61873      162.967 
-7.37039e-05      3.98301      103.059 
-5.54206e-05      3.42053      88.9949 
1.83557e-05      3.62464      162.665 
1.84680e-05      4.42868      58.1043 
-1.85698e-05      3.99805      102.715 
-0.000169822      4.01756      102.653 
1.85968e-05      3.63065      162.364 
-7.55297e-05      3.40053      88.9890 
3.76354e-05      3.63676      162.063 
1.90074e-05      3.64297      161.764 
-1.91202e-05      3.38053      88.9830 
-0.000214966      4.03708      102.590 
5.79761e-05      4.44072      135.365 
5.79088e-05      3.64927      161.466 
-5.83297e-05      5.72842     -135.990 
3.89462e-05      4.14174     -128.530 
-9.76690e-05      3.40094      88.6521 
-1.95660e-05      5.29830      131.634 
3.93166e-05      3.65568      161.169 
-0.000142155      5.31327      131.490 
-8.03121e-05      6.10397      92.0655 
6.00462e-05      3.66218      160.872 
-0.000122191      3.38095      88.6441 
-0.000292203      4.05660      102.529 
2.01258e-05      4.48326      134.458 
-0.00155700      6.10328      91.8779 
0.000102737      3.66879      160.577 
4.16381e-05      4.49755      134.279 
0.000106087      3.78671     -31.1713 
4.22009e-05      4.30674      138.389 
0.000149788      3.67549      160.283 
 0.0148803      7.06385     -32.1601 
-8.57692e-05      3.36095      88.6361 
-0.000130339      5.32826      131.348 
-0.00859615      6.10266      91.6902 
4.36324e-05      4.29348      138.588 
0.00315598      3.68228      159.990 
-8.86377e-05      4.07613      102.468 
-0.000135813      3.34096      88.6279 
0.000232118      3.78005     -31.5876 
6.82237e-05      4.51190      134.102 
-9.17267e-05      5.32654      131.651 
-0.00119935      4.09141      102.134 
9.29415e-05      4.26919      139.370 
-2.28081e-05      5.73690     -4.39870 
9.46532e-05      4.38415      58.0500 
-0.000528323      7.61601      53.2204 
-4.71834e-05      5.72017     -4.81355 
-7.14580e-05      3.32096      88.6196 
-4.92785e-05      5.73847     -4.59781 
-0.000248947      5.34150      131.509 
-0.00100987      6.10210      91.5025 
0.00119146      3.68917      159.698 
0.000255554      6.22877      101.671 
0.000487660      4.52628      133.926 
-7.41179e-05      3.34150      88.2851 
0.000152711      4.25620      139.574 
0.000270464      3.76962     -31.3287 
0.000333595      4.36720      57.9112 
-0.000186417      3.32151      88.2747 
0.000163112      3.67744      159.298 
-0.00130857      5.35649      131.367 
2.72029e-05      4.24325      139.780 
0.000168213      5.94811      63.0042 
0.00104746      6.22476      101.490 
-8.57181e-05      5.72189     -5.01311 
0.000464655      5.96594      63.0913 
-0.000120922      3.30151      88.2643 
-0.000187432      2.23141     -165.466 
9.84587e-05      4.33963      57.9946 
-6.50903e-05      2.23652     -164.970 
-0.000106590      3.28152      88.2537 
-0.000345643      2.26106     -164.612 
0.000498486      5.98378      63.1780 
0.000376592      4.54141      133.394 
0.000189401      3.64911      97.2419 
-0.000110046      2.28569     -164.261 
-0.000348162      2.29120     -163.780 
-0.00489786      5.37345      130.925 
0.000652633      6.00163      63.2642 
0.00212083      6.22080      101.310 
-0.000289950      2.31603     -163.443 
-0.000314084      6.48151      51.8924 
4.22123e-05      3.62927      97.2817 
-0.000398370      2.32181     -162.970 
0.000828140      6.01950      63.3498 
9.04766e-05      4.55596      133.221 
-0.000198589      7.60405      53.3411 
0.000495748      5.67958      71.9479 
0.000143195      4.29511      57.9381 
-0.000630309      2.34683     -162.646 
4.82765e-05      4.55693      132.866 
-0.000786428      6.50959      51.8625 
0.000157350      4.57161      132.695 
-0.000531735      2.35287     -162.181 
0.00149065      6.03738      63.4349 
-0.00132725      2.37807     -161.870 
0.000565615      5.66057      71.8851 
-0.000313797      5.80775      123.909 
0.000187580      4.58633      132.526 
0.000991526      3.67042      159.590 
0.000476441      6.21691      101.129 
-0.000406169      6.55341      51.9410 
-0.000682482      2.38437     -161.413 
-6.78621e-05      1.61059      65.0261 
-6.98817e-05      5.80238      124.183 
