! Center RA: 08 41 24.36528,  Dec: +70 53 42.17302 (2000.0)
! Established model.
! Flux (Jy) Radius (mas)  Theta (deg)  Major (mas)  Axial ratio   Phi (deg) T \
! Freq (Hz)     SpecIndex
  0.165975    0.0282843     -135.000 
 0.0422376    0.0223607     -116.565 
 0.0480765    0.0424264     -135.000 
0.00223781    0.0141422     -135.000 
0.00434459    0.0100001     -90.0000 
0.00417623      0.00000      0.00000 
0.00202759   0.00999997      0.00000 
0.00585153    0.0141421      45.0000 
0.00187640    0.0223606      26.5651 
0.00715945    0.0282842      45.0000 
0.00822804    0.0424264      45.0000 
 0.0182006    0.0565685      45.0000 
0.00780371    0.0500000     -143.130 
 0.0164674    0.0640312      38.6598 
 0.0457287    0.0761578     -156.801 
 0.0135599    0.0721110      33.6900 
 0.0137170    0.0806225      29.7449 
0.00205142    0.0424264     -45.0000 
0.00299821    0.0500000     -36.8699 
0.00309938    0.0583095     -30.9638 
 0.0296689    0.0806226      150.255 
0.00764614    0.0670820     -26.5651 
 0.0211730    0.0761577     -23.1986 
 0.0321996     0.430465     -149.265 
0.00569635     0.233238     -120.964 
 0.0232671     0.241868     -119.745 
0.00150395     0.444185     -148.815 
 0.0238939     0.439090     -149.931 
 0.0201828     0.237065     -117.646 
 0.0135672     0.452769     -149.470 
 0.0102620     0.232594     -115.463 
0.00545907     0.228473     -113.199 
0.00322936     0.447772     -150.573 
0.00218446     0.224722     -110.854 
0.00836879     0.477074     -146.976 
0.000682890     0.429418     -152.241 
0.00863875     0.202238     -98.5308 
0.000445639     0.228254     -118.811 
0.000216354     0.424853     -153.435 
0.00118840     0.411461     -154.058 
0.000189064     0.238537     -123.024 
0.000535334     0.236009     -126.384 
0.00257973     0.420476     -154.654 
0.00220464     0.242074     -128.290 
0.00174148     0.429535     -155.225 
0.000315146     0.240832     -131.634 
0.00536407     0.212132     -98.1301 
0.00224049     0.247588     -133.363 
0.00307989     0.485489     -147.619 
0.00133702     0.438634     -155.772 
0.00109306     0.447772     -156.297 
0.000189057     0.256125     -141.340 
0.000829415     0.248395     -139.899 
0.00111450      2.71709     -137.088 
0.00403030      2.72391     -136.934 
 0.0189045     0.530754     -137.291 
0.00105600      2.73234     -139.899 
0.00261897      2.74000     -140.034 
0.00306986      2.71662     -136.790 
0.00423984      2.73359     -140.194 
0.000287483      2.72347     -136.637 
0.000284079      2.70934     -136.645 
0.00266881      2.71621     -136.492 
0.00612740      2.74128     -140.328 
0.00122511      2.70897     -136.346 
0.00115769      2.70174     -136.200 
0.00151751      2.69453     -136.053 
0.000615330      2.68734     -135.905 
0.00192642     0.523450     -136.548 
0.000972636      2.69431     -135.752 
0.000198393      2.73075     -136.781 
0.00673694     0.530377     -135.764 
0.00142222      2.68715     -135.603 
0.00314612      2.74898     -140.461 
0.00102214      2.73123     -137.077 
0.00199038      2.68002     -135.454 
0.00149433      2.73856     -137.220 
0.000578798      2.73490     -140.489 
0.00570144      2.74263     -140.622 
0.00104894      2.67290     -135.303 
0.000717920      2.68704     -135.302 
0.000963293      2.73178     -137.374 
0.00428777      2.67994     -135.151 
0.000431932     0.524976     -139.635 
0.000498128     0.526308     -141.170 
0.000202477     0.537401     -135.000 
0.00373016     0.537587     -133.493 
0.000432246      2.74591     -137.361 
0.00776259     0.520096     -142.028 
0.000529963      2.62680     -137.932 
0.00313701     0.544885     -132.769 
0.00183666     0.514004     -142.907 
0.00111350      2.62011     -138.094 
0.000144569      2.75269     -137.208 
0.00143808     0.522015     -143.569 
0.00356274      2.75036     -140.755 
0.000667609     0.508035     -143.807 
0.000253177      2.76004     -137.349 
0.00199024     0.516140     -144.462 
0.000879818      2.76682     -137.197 
0.00191793      2.67286     -135.000 
0.000353245     0.502195     -144.728 
0.00139129      2.61345     -138.257 
0.00289500     0.510392     -145.376 
0.00202331     0.538145     -131.987 
0.00120449      2.75065     -135.147 
0.00274986      2.78095     -137.186 
3.89925e-05      2.60680     -138.421 
0.00288310      3.16746     -145.808 
0.000670728      3.17574     -145.910 
0.00542724      3.11437     -144.013 
0.00114832      3.17014     -146.059 
0.00263088     0.318277     -133.727 
0.000583536      3.17844     -146.160 
0.00162093      3.17289     -146.310 
0.00223099     0.311448     -132.397 
0.00156682      3.17569     -146.560 
0.00235055     0.524309     -145.098 
0.000363337      3.17019     -146.711 
0.000110805      3.17855     -146.810 
0.00365509     0.332415     -136.219 
0.000170952     0.506063     -142.224 
0.000689394      2.77363     -137.045 
7.19746e-05      2.77966     -136.312 
0.000474034      2.77417     -137.337 
7.07909e-05      2.78658     -136.163 
0.000339742      2.77937     -136.020 
 0.0110624     0.318277     -136.273 
0.00258720     0.325269     -135.000 
0.000725524      2.78632     -135.872 
0.000591231      2.77478     -137.629 
0.000217423      2.77915     -135.729 
0.000413527      2.76805     -137.782 
0.00224550      2.78614     -135.582 
0.000810676     0.518652     -146.004 
0.000454392      2.77546     -137.921 
0.000689775     0.513128     -146.929 
0.000952895      2.76877     -138.074 
0.00480212     0.311127     -135.000 
0.00558804     0.516236     -148.465 
0.00156925      2.77622     -138.212 
0.00174482      2.77901     -135.437 
0.00122350     0.530754     -132.709 
0.000585250      2.93639     -142.193 
0.00160441      2.92850     -142.074 
4.95970e-05     0.507740     -147.875 
0.000180471      3.00413     -143.664 
0.000922985      2.89871     -141.865 
0.000248884      3.00629     -143.931 
0.000464274      3.01438     -144.042 
0.00156445     0.524023     -131.906 
0.00244400      2.90489     -141.710 
0.00156230      3.02248     -144.154 
0.000452236     0.517397     -131.082 
0.00421611     0.304138     -136.332 
0.00488223     0.311448     -137.603 
0.00421405     0.578014     -127.266 
6.09605e-05     0.506063     -150.396 
0.00211576     0.501199     -151.390 
0.00173437      3.15457     -147.821 
0.000902087     0.496488     -152.403 
0.000102536      3.15349     -146.511 
0.000442186      3.15902     -146.360 
0.000513587      3.14925     -147.975 
0.000552904      3.16457     -146.210 
0.000506310      3.15246     -148.226 
3.76772e-05     0.491935     -153.435 
1.21686e-05     0.505371     -152.928 
0.000425485     0.500899     -153.947 
0.00133631      3.14721     -148.381 
0.00229774     0.325576     -137.490 
0.000977635     0.526973     -146.611 
0.000527857     0.521536     -147.529 
0.000886749     0.564004     -127.073 
0.000213724     0.530000     -148.109 
0.000362498     0.524786     -149.036 
0.00162987     0.558032     -126.254 
0.000114598     0.519712     -149.982 
2.18426e-05     0.514782     -150.945 
2.15153e-05     0.510000     -151.928 
0.000102941     0.518845     -152.447 
0.000468240     0.514296     -153.435 
0.000157332     0.535350     -147.200 
0.000349131     0.509902     -154.440 
0.000244566     0.540833     -146.310 
0.000114560     0.342053     -142.125 
0.000539389     0.334216     -141.072 
0.00213960     0.326497     -139.970 
0.00181637     0.546443     -124.563 
0.000928817     0.532541     -145.713 
0.00312269     0.318904     -138.814 
0.000130079     0.487545     -154.486 
0.000608074     0.496588     -154.983 
0.000632890      3.13869     -148.285 
0.000897438     0.546443     -145.437 
0.000535024     0.492443     -156.038 
0.00113864     0.538238     -125.166 
0.000189655     0.505668     -155.462 
0.000284989     0.501598     -156.501 
0.000761018     0.530094     -125.789 
0.000308026     0.554707     -146.023 
0.00204249      2.79780     -138.332 
0.000247729      2.87360     -141.216 
0.00126554      2.88141     -141.340 
5.58104e-05      2.80446     -138.180 
0.00100886      2.81460     -135.864 
0.000928631      2.88922     -141.464 
0.00160670      2.80744     -135.722 
0.000274326      2.89705     -141.587 
0.00161856      2.79866     -138.621 
0.000390251      2.97800     -143.053 
0.00120502      2.97200     -143.207 
0.00245208      2.80029     -135.579 
0.00122018      2.96602     -143.362 
6.40377e-05      2.86582     -141.090 
0.000371498      2.87211     -140.935 
0.000216389      2.86435     -140.809 
0.000275930      2.96007     -143.517 
0.00100268      2.80617     -138.756 
0.000189690      2.81370     -138.891 
0.000171154      2.87068     -140.654 
0.000712149      2.87988     -141.061 
0.000326853      2.88766     -141.185 
0.000176792      2.80528     -138.468 
0.000259371      2.87842     -140.781 
0.000185313      2.79315     -135.435 
1.67980e-05      2.81277     -138.603 
0.000865148     0.199249      72.4744 
0.000145171     0.247588      46.6366 
0.000527011     0.345398     -157.891 
0.000265875     0.254558      45.0000 
0.000898451     0.196469      75.2565 
0.000448751     0.261725      43.4518 
0.00939086     0.341760     -159.444 
0.00165891     0.194165      78.1113 
0.00265653     0.254951      41.8202 
0.000218228     0.332415     -133.781 
0.000378880     0.325576     -132.510 
0.000687868     0.333017     -131.348 
0.000513183     0.203961      78.6901 
0.000118347     0.339706     -132.614 
0.000607778     0.193132      68.7495 
6.16584e-05     0.240416      45.0000 
0.000174314     0.247588      43.3634 
0.000419649     0.189737      71.5651 
0.00118718     0.186815      74.4759 
0.00434236     0.248395      40.1009 
0.000336630     0.318904     -131.186 
0.000342710     0.326497     -130.030 
0.000921101     0.183848      67.6199 
8.17372e-05     0.304795     -138.991 
0.000104593     0.187883      64.7989 
0.000386242     0.180278      70.5600 
0.000462836     0.304138     -133.668 
0.00126147     0.302324     -124.216 
0.000214455     0.184391      77.4712 
0.00127927     0.174642      66.3706 
0.000641854     0.297321     -137.726 
6.36945e-05     0.178885      63.4350 
0.000500851     0.296985     -135.000 
0.000469102     0.177200      73.6105 
0.000143631     0.290689     -139.185 
0.000268908     0.290000     -136.397 
6.71113e-05     0.170880      69.4440 
0.00218069      3.78431     -60.3866 
0.00196258      2.10839     -147.591 
0.000961116      2.30671     -58.6529 
0.00105391      4.14661      171.401 
0.00132133      5.69217      143.573 
0.000483913      5.70742     -100.601 
-0.000978465      3.76215      53.6479 
-0.000977729      4.52320     -92.1539 
-0.000493205      2.09153     -122.702 
-0.000154215      2.18790     -166.789 
0.000865883      2.32045     -58.5704 
0.000247423      5.69575     -100.521 
0.000300076      1.26016     -89.0906 
-0.00123329      2.79652      155.268 
-0.000575786      2.19021     -166.535 
-0.000889797      4.39659      35.9316 
0.000686747      1.71470     -110.126 
0.000395299      3.30220      45.1227 
0.000143580      3.47328      100.954 
0.000368025      4.50405      165.470 
9.61060e-05      2.26974      174.691 
0.000397464      3.46983     -167.686 
-0.00127849      4.15935     -54.5904 
0.00123648      5.69759     -100.620 
0.000559821      2.26883      174.943 
-9.32848e-05      5.07871      166.101 
0.000584632      4.67457      162.573 
0.000392330      1.67359     -80.3688 
0.00113550      3.47140      100.792 
-0.000132203      3.47540     -101.957 
-0.000540609      5.55936     -129.819 
-0.000220259      2.09695     -122.932 
-0.00120848      5.08112      165.991 
-0.000176296      2.56977     -98.7292 
-0.000261019      4.48794     -34.4691 
-0.000511713      1.86454      139.132 
-0.00153637      3.56856     -150.634 
0.00102838      2.03435     -35.7996 
-0.000281379      3.42667     -81.6098 
0.000535904      3.93080      77.6609 
4.25585e-05      1.01533      50.1944 
-0.000418888      2.57130     -98.9495 
0.000897029      4.50657      165.347 
0.000308938      4.74912     -42.5253 
0.00114929      1.72409     -110.011 
0.000513430      1.02176      49.7636 
-0.000817485      2.08312     -122.851 
-0.000304678      3.76809      53.5254 
-0.000659605      4.47970     -34.5415 
-0.000118104      2.58103     -134.529 
0.000344146      3.92227      37.5419 
7.73616e-05      8.25523     -133.380 
0.000269882      3.56535     -35.2948 
-0.000757555      4.56637      173.840 
0.000817994      3.46006     -167.651 
0.00100622      4.13673      171.380 
-0.000266261      2.73146      5.25140 
0.000156271      3.93127     -17.4671 
-0.000207474      5.73785      150.218 
0.00103920      6.22223     -126.373 
0.000656587      1.98980     -8.08938 
-0.000718271      6.14649     -84.6790 
-0.000259521      1.31883     -31.0383 
0.000529307      1.66373     -80.3112 
0.000114103      3.33398      168.757 
3.86909e-05      3.30929      45.2449 
0.000586603      7.35832     -133.017 
-0.000147710      5.22024     -138.339 
0.000484308      5.09181      157.969 
0.000501059      2.25887      174.920 
-0.000112368      4.09207      161.919 
0.000847416      3.30226      45.3681 
0.000901367      3.92173     -17.5109 
0.000405440      3.87807     -93.6961 
0.000314507      1.34792     -123.808 
-0.000387982      4.20583     -18.4350 
-7.30837e-05      5.27910      50.6113 
0.000555292      4.66503      162.536 
0.000595937      2.09995     -147.445 
-0.000356364      5.56066     -129.674 
3.62391e-05      3.44401     -143.263 
-0.000490149      4.10157      161.963 
0.000330838      3.55958     -35.1634 
0.000205775      5.72598     -139.746 
0.000303041      4.24834     -50.5398 
-0.000613011      5.28683      50.6801 
0.000721580      3.43001     -143.297 
-6.88427e-05      1.32231     -30.4436 
0.000442630      1.97990     -8.13010 
-0.000526765      2.72151      5.27067 
-0.000494669      4.38850      36.0082 
-0.000575846      5.22689     -138.257 
3.44989e-05      3.33204      168.926 
-0.000504974      6.60960     -140.772 
6.78406e-05      3.91533      38.3627 
3.41603e-05      4.99586     -105.678 
-0.000160390      2.21984      105.414 
0.000699786      2.09086     -178.356 
0.000547366      5.77631     -87.3209 
-9.59805e-05      3.42815     -81.4444 
0.000251369      6.60382     -119.282 
-0.000119832      4.66759     -101.117 
-0.000124734      2.08339      104.170 
-0.000364371      6.52939     -147.064 
0.000790281      4.24199     -50.6441 
-0.000187150      1.85699      138.930 
-0.000172360      2.28758      156.012 
9.59111e-05      3.91372      38.5684 
0.000373279      2.05000      24.1895 
0.00705698      5.37894      40.1738 
-0.000472909      8.26385     -136.961 
-0.000324971      5.29317      50.5964 
-0.000221318      3.77404      53.4034 
3.20738e-05      4.75588     -42.6141 
-0.000768686      2.42405     -64.0692 
0.000742957      2.31193     -58.4412 
0.000462794      5.23042     -176.383 
0.000123560      5.94860     -131.866 
0.000288638      3.14226      12.3113 
-3.18625e-05      2.56143     -98.9843 
0.000201007      5.74008     -139.734 
0.000275824      3.93295      77.5186 
-0.000207003      6.20607     -99.5534 
0.000445355      3.91996      38.6826 
-0.000605793      4.55642      173.826 
6.01649e-05      8.25565     -133.282 
0.000180958      4.76324     -42.5326 
0.000478954     0.850412     -48.8141 
0.000288803      7.35150     -132.960 
-0.00124879      4.15356     -54.7029 
-0.000559795      2.51191     -47.0972 
5.73507e-05      4.99317     -105.567 
-3.01611e-05      2.55988     -98.7632 
-5.93740e-05      2.87847     -112.467 
5.89582e-05      3.55383     -35.0316 
-8.68659e-05      2.57899      23.7820 
8.64455e-05      4.42233     -175.721 
-5.69825e-05      3.43804     -81.4692 
0.000137275      5.95527     -131.937 
0.000113490      3.54565     -35.1244 
-0.000568603      2.08586      104.436 
0.000186850      5.44281     -125.880 
0.000533949      1.67362      40.6384 
0.000111120      3.88068      24.1874 
-0.000111942      6.51181     -149.142 
-0.000704187     0.974166     -107.319 
-0.000140643      1.85801      139.365 
-5.61543e-05      2.57498      23.5784 
0.000108300      6.60872     -119.358 
0.000361763      3.27732     -70.0169 
-0.000157660      6.61593     -140.705 
8.17384e-05      4.42309     -175.591 
5.42290e-05      8.25608     -133.184 
-0.000456101      2.58815      23.6928 
0.000178107      2.41019      19.6378 
-0.000766492      6.79071     -136.551 
0.000810715      1.33454     -107.892 
0.000900002      1.87949     -8.25944 
0.000134015      3.53990     -34.9920 
-0.000103473      4.21275      63.4958 
-0.000451202      6.20442     -99.4623 
0.000343069      3.85502      26.8309 
2.69746e-05      2.71007      53.5529 
-7.84618e-05      5.56836     -129.608 
-0.000196155      6.51695     -149.066 
-7.80403e-05      4.36873     -147.147 
-0.000102560      6.52396     -147.138 
0.000394912      5.67480     -84.6410 
0.00117355      7.34418     -133.014 
-2.64071e-05      2.41969     -64.2821 
0.000539552      2.09117     -178.082 
0.000394626      4.41312     -175.581 
0.000344044      4.91501      135.907 
-2.61555e-05      2.55838     -98.5418 
0.000311662      1.67195     -80.7067 
0.000363392      3.20713      152.316 
0.000127779      3.53418     -34.8592 
0.000939290      3.14014      12.1330 
0.000472607      2.78620     -153.803 
-0.000263022      4.09849      162.096 
0.000114296      3.58755      137.146 
7.50902e-05      3.88981      24.1270 
-0.000617463      4.21723      63.3742 
-0.000235698      2.71155      5.29008 
0.000760424      5.16462     -157.457 
4.94966e-05      5.67575     -84.5405 
0.000355203      3.92604      37.1326 
-0.000400901      5.84406     -145.739 
-0.000275424      3.17309     -20.0911 
-2.53069e-05      4.19634     -18.4781 
7.30101e-05      5.74655     -139.658 
-7.32824e-05      4.38041      36.0851 
0.000180595      5.96196     -132.009 
2.51455e-05      3.98540      7.64214 
0.000298089      3.88805     -93.6866 
0.00115326      7.09567     -121.809 
-4.92277e-05      1.66589      175.179 
0.000122397      3.52026     -34.8187 
-7.26484e-05      4.36033     -147.075 
-9.35222e-05      5.56199     -129.529 
0.000219756      3.21741     -134.622 
-0.000136321      2.91371      163.244 
-0.000382608      3.64281      16.0966 
-0.000205515      5.30091      50.6650 
-2.43334e-05      2.74002      89.7909 
9.41483e-05      3.91220     -17.5550 
-7.08514e-05      3.86039     -64.6962 
0.000201199      3.92622      38.7966 
-0.000470402      5.64263     -78.0329 
0.000263964      5.45092     -125.819 
-0.000370321      2.74000      90.0000 
6.22542e-05      6.60492     -119.476 
-0.000320684      6.60819     -140.650 
0.000149760      4.22452      122.825 
0.000191238      1.99970     -8.04906 
0.000336090      3.51456     -34.6848 
2.36509e-05      3.97549      7.66131 
0.000492964      5.46125     -172.953 
0.000141408      6.12614     -139.236 
-0.000147506      2.27844      155.910 
0.000330112      3.27136     -69.7924 
2.33532e-05      2.70204      53.4270 
8.99034e-05      2.73002     -36.6600 
2.33326e-05      3.04237     -155.120 
4.48649e-05      3.45245     -167.453 
-2.33137e-05      7.19261     -143.879 
-0.000167878      3.38813     -84.0707 
0.000723975      3.95386     -11.8215 
2.31648e-05      3.28075     -69.8528 
2.31245e-05      8.25654     -133.086 
-2.31129e-05      4.51320     -92.1587 
0.000143463      3.88479      24.3219 
0.000451308      5.84778     -104.559 
-6.64976e-05      2.55548     -98.0984 
-4.47771e-05      4.66953     -101.238 
-0.000472219      4.38631      36.1906 
0.000164356      1.49683      77.2636 
0.000132533      5.50205     -91.5622 
-0.000156135      2.06930     -122.768 
0.000203806      6.74003     -142.960 
-0.000282224      8.25654     -136.914 
-0.000354523      2.58414      23.4897 
4.44330e-05      5.76064     -139.647 
-4.41219e-05      4.35194     -147.004 
-8.50952e-05      3.86467     -64.5622 
4.36599e-05      3.97683      7.80410 
-6.55845e-05      3.38711     -84.2389 
0.000129677      3.19828      152.233 
0.000345568      6.21422     -105.781 
-0.000318060      3.78001      53.2817 
0.000148467      4.06605     -164.597 
2.21746e-05      2.41961      19.5582 
0.000203025      5.96866     -132.080 
0.000120715      4.65851      162.382 
0.000630193      4.69401     -171.300 
-0.000233563      6.01778      164.185 
0.000863356      3.85052      26.6981 
0.000270574      2.41628      19.3348 
6.27753e-05      6.21151     -105.692 
0.000733182      1.25036     -88.6252 
-0.000124124      2.72244      5.48024 
2.14035e-05      3.77636     -170.089 
8.23760e-05      5.76712     -139.571 
4.22982e-05      4.77001     -42.6211 
-7.03734e-05      5.56970     -129.463 
2.13145e-05      6.14232     -159.411 
-2.13137e-05      7.65823     -135.476 
-0.000157489      2.43304     -64.1722 
-0.000476145      5.82104     -156.297 
0.000135415      4.51625      165.379 
-0.000178757      4.11108      162.006 
-8.16354e-05      4.05395      83.7691 
-0.000385201      7.65110     -135.424 
0.000299775      6.15520     -159.357 
0.000214950      4.21754      50.1944 
8.29961e-05      3.50887     -34.5506 
0.000297788      7.20978     -139.106 
0.000102127      3.96693      7.82371 
5.89397e-05      3.30861      169.200 
0.000251767      5.50233     -91.6663 
-0.000209466      2.09805      104.632 
-7.30369e-05      2.55409     -97.8763 
-2.05514e-05      4.04814      147.920 
-0.000379908      5.29457      50.7487 
0.000225718      3.19363      152.392 
-0.000112619      3.73291     -75.2564 
-6.34176e-05      4.10800      162.138 
0.00100439      3.50634     -34.7778 
0.000132442      4.77737     -42.5399 
2.03248e-05      2.56164     -10.3449 
0.000184813      2.09153     -177.808 
-0.000181182      4.05346      147.800 
0.000296073      4.06872     -164.461 
-7.92385e-05      5.86308     -129.255 
5.86664e-05      7.20222     -139.054 
0.000626670      4.91525      136.072 
-7.83816e-05      1.42780     -151.101 
3.95265e-05      5.47118     -172.966 
-3.89090e-05      4.34356     -146.932 
0.000186266      5.69811      143.492 
9.22091e-05      3.93249      38.9101 
1.97800e-05      5.78630     -87.3255 
-9.21102e-05      2.51873     -46.9306 
9.24969e-05      1.48708      77.1787 
-3.72263e-05      1.66508      175.522 
3.86972e-05      5.77361     -139.496 
-0.000119933      6.51854     -147.212 
-0.000196539      2.61457      129.413 
0.000187432      2.57148     -10.3048 
3.73693e-05      6.43851      161.903 
0.000285008      3.96830      7.96675 
-0.000176887      2.71249      5.50041 
0.000140234      5.22980     -176.492 
0.000752217      5.46996     -173.070 
-0.000456102      5.85676     -129.179 
0.000244035      5.96124     -132.144 
0.000226241      4.03210     -133.392 
-0.000365814      1.42299     -151.454 
-0.000305442      3.79859      104.951 
-8.70423e-05      4.05505      83.6286 
-0.000354648      5.64057     -78.1323 
0.000104350      1.66604      40.8624 
0.000120772      5.96796     -132.216 
0.000386465      6.16809     -159.303 
0.000121972      1.35624     -123.573 
0.000634233      7.20324     -139.166 
-3.53206e-05      2.91661      163.056 
1.86429e-05      5.80621     -139.120 
0.000371114      3.92800      36.9282 
0.000994101      5.64300     -44.4256 
-1.84190e-05      4.33518     -146.860 
5.44700e-05      5.81276     -139.046 
-0.000315910      7.64398     -135.371 
-5.26436e-05     0.939628      163.301 
0.000148697      1.88939     -8.21588 
0.000209140      3.89391      24.2613 
1.82094e-05      3.29879      169.167 
-0.000186429      2.88487     -78.8069 
3.57064e-05     0.849588     -47.8624 
-1.79940e-05      4.78649      154.773 
5.18212e-05      3.21030     -134.748 
-0.000253240      6.79760     -136.490 
0.000215995      4.22522      50.2812 
3.52444e-05      5.32219     -93.8785 
-5.08125e-05      4.17738     -18.5651 
3.49355e-05      3.43804     -143.397 
0.000103067      5.81932     -138.972 
0.000239773      5.31154     -93.7782 
5.19234e-05      5.50263     -91.7704 
-4.93165e-05      6.51352     -148.946 
0.000203580      3.94407     -11.8512 
-0.000399211      8.24924     -136.867 
-0.000144497      2.43742     -63.9606 
0.000326849      6.15133      174.215 
5.10436e-05      1.61450      116.089 
-0.000114668      1.12925      157.068 
9.75623e-05     0.842912     -48.3665 
-0.000402462      6.00816      164.159 
0.000325833      4.51878      165.256 
-3.35552e-05      2.08837      104.702 
-0.000158944      3.56366     -150.774 
0.000136385      3.42405     -143.431 
-8.03565e-05      6.00948     -121.389 
8.14449e-05      1.33150     -107.482 
6.11631e-05      2.73000      112.620 
8.02940e-05      3.18478      152.308 
-1.66763e-05      4.79980      154.716 
4.92243e-05      3.50064     -34.6434 
4.82511e-05      8.25703     -132.988 
0.000302751      3.75949     -54.7458 
9.59907e-05      3.93878      39.0233 
0.000265965      5.82589     -138.897 
-0.000356699      7.63687     -135.318 
3.25978e-05      5.49263     -91.7736 
-0.000117805      5.57839     -71.1753 
1.64262e-05      4.21911      122.711 
0.000599927      6.18098     -159.249 
0.000434193      2.98530      125.181 
-6.29812e-05      6.60681     -140.528 
0.000187487      4.69553     -171.180 
-0.000505424      2.88196     -12.8307 
0.000287163      3.95840      7.98681 
6.17648e-05      1.48933      76.8035 
0.000100506      1.47201     -53.2858 
4.77691e-05      1.60997      116.565 
-0.000153492      5.42706     -48.5856 
-4.69772e-05      2.59731      23.6041 
-2.93363e-05      3.74258     -75.2954 
-1.59780e-05      5.42045     -48.6649 
-0.000324363      1.65415     -37.6319 
-0.000168286      5.83020     -156.337 
7.54525e-05      5.49295     -91.8779 
0.000108217      3.30938      45.4897 
-1.57535e-05      5.83016     -145.765 
-0.000233585      4.92541      154.892 
-7.61531e-05      5.33353      150.455 
4.42995e-05      6.14024     -139.227 
0.000601326      3.85498      26.4986 
-0.000305660      2.89277     -79.0397 
5.86744e-05      4.95235     -95.4458 
-0.000470823      2.71347      5.71059 
-1.55219e-05      2.92617      163.113 
-1.55031e-05      4.36496     -59.7341 
-0.000780405      3.63321      16.1404 
-0.000109509      6.20278     -99.3712 
-0.000213525      1.12004      156.869 
0.000131931      6.19033     -159.281 
-9.66683e-05      3.00521      45.1348 
-5.76561e-05      4.54542      173.938 
-0.00260134      5.81242      45.0000 
1.52852e-05      3.28710      169.305 
0.000291732      8.25754     -132.890 
-4.51636e-05      4.37001     -59.6209 
-4.25145e-05      1.85043      139.164 
-1.51868e-05      4.04511      83.6129 
-1.51916e-05      1.65593      175.150 
-9.83003e-05     0.942550      162.719 
0.000181520      5.15539     -157.414 
-1.50440e-05      2.56265     -97.6242 
-4.30268e-05      4.39182     -139.710 
1.50063e-05      1.65849      41.0884 
5.78816e-05      3.94509      39.1361 
-0.000331580      6.60038     -139.917 
0.000132064      1.34406     -107.761 
-7.08978e-05      6.60540     -63.6677 
0.000249430      1.47801     -52.9750 
0.000145265      2.79063     -153.619 
-0.000177443      5.40237      135.300 
-0.00103121      6.08185     -49.8688 
0.000235479      4.68565     -171.161 
0.000134259      2.58132     -10.2651 
-2.94514e-05      5.63852     -78.2317 
0.000519602      7.19670     -139.226 
9.75875e-05      4.23292      50.3677 
-0.000342565      7.62976     -135.266 
0.000135838      4.07141     -164.325 
-1.46673e-05      6.50496     -148.900 
-0.000372700      3.57239     -150.852 
-0.000118249      1.41905     -150.906 
0.000150188      7.35101     -133.071 
-0.000220498      5.84337     -156.286 
4.29634e-05      3.09968      19.6041 
5.42897e-05      1.60552      116.246 
-2.82405e-05      3.16967     -19.9213 
5.46457e-05      3.88870     -93.8337 
4.12238e-05      7.34371     -133.124 
0.000177842      6.61891      153.048 
-2.88155e-05      6.34275     -134.936 
-0.000108760      3.24006    -0.353674 
0.000340430      3.61365      68.4047 
0.000143656      5.32152     -93.7711 
-0.000249431      5.43457     -48.6554 
-2.74495e-05      6.00616     -121.520 
-9.35061e-05      2.44641     -64.0634 
-4.22218e-05      5.34223      150.508 
-1.42814e-05      4.06192      147.875 
-0.000131614      5.08057     -148.030 
0.000127337      3.27542      169.445 
-5.58152e-05      5.63078     -78.1113 
-0.000190482      6.33569     -134.872 
-1.41995e-05      2.52604     -47.0855 
-1.42015e-05      3.78803      53.3721 
4.14073e-05      5.49329     -91.9821 
0.000172890      3.13806      11.9545 
0.000134654      4.09782      12.5440 
0.000403246      3.95980      8.13010 
0.000104329      3.09634      19.4298 
0.000421873      1.25064     -88.1672 
2.71950e-05      3.96970      8.10969 
-0.000103643      2.60686      129.552 
-3.47613e-05      5.30232      50.8170 
-0.000118960      4.92967      154.787 
-0.000152414      3.79602      104.805 
-5.01292e-05      3.79401      53.2509 
0.000173803      2.65424     -3.23970 
0.000254721      5.21982     -176.485 
-4.04982e-05      4.23954     -14.2001 
-0.000185860      5.08355      165.882 
0.000207014      7.09040     -121.740 
-8.85152e-05      6.80485     -136.548 
-0.000139567      5.62873     -78.2110 
-0.000111833      5.33846      150.362 
-1.35113e-05      6.51013     -148.825 
0.000112021      3.43208     -143.531 
3.97282e-05      6.63931     -114.944 
1.33473e-05      5.83257     -119.026 
2.58062e-05      3.93600      36.8408 
-0.000280921      7.64391     -135.265 
0.000491364      7.58011     -127.172 
0.000290782      5.82383     -119.074 
6.17933e-05      3.89803      24.3953 
-0.000291313      4.24200     -14.3311 
0.000322092      6.19388     -159.195 
2.58745e-05      2.37447     -171.768 
-2.61143e-05      5.86451     -129.118 
0.000239773      3.50386     -35.0054 
-2.56450e-05      4.04623      83.4722 
3.88897e-05      4.94631     -168.099 
5.56113e-05      3.89313     -17.6438 
0.000340743      6.63510     -114.866 
0.000122393      6.31817      165.612 
-0.000183770      5.85253     -156.326 
-3.74756e-05      6.01140     -121.601 
0.000172201      4.10000      12.6804 
-0.000173551      1.00767     -139.830 
-0.000110386      6.32155     -134.872 
-0.000214357      4.92062      154.737 
-0.000175489      5.06142     -144.489 
9.74004e-05      6.63236      153.010 
7.24646e-05      2.75394      79.7510 
0.000129986      4.68720     -171.040 
0.000507956      8.26487     -132.843 
4.90603e-05      1.89085     -8.51578 
-4.90810e-05      3.16027     -19.9831 
6.12531e-05      4.93653     -168.075 
0.000131514      6.20322     -159.228 
8.24473e-05      3.90267     -17.5993 
-0.000105291      3.25006    -0.352585 
-3.64694e-05      5.58464     -71.3055 
-0.000164801      6.20210     -142.798 
0.000136001      2.73386      112.813 
2.46534e-05      5.82687     -139.036 
0.000260918      3.12621      11.8131 
4.89341e-05      4.07413     -164.190 
-5.81868e-05      4.04283      116.755 
-9.38411e-05      5.40941      135.225 
-5.90320e-05      7.58726     -134.947 
3.58275e-05      1.49907      76.8908 
0.000206589      3.75133     -54.6576 
1.22577e-05      2.36457     -171.733 
7.08296e-05      5.17397     -131.082 
4.76850e-05      5.78771     -139.485 
-3.63155e-05      5.23248     -59.3179 
0.000431139      7.03036      150.518 
-4.73961e-05      5.59647      171.160 
9.26279e-05      4.93447     -168.189 
0.000126899      3.94614     -11.9933 
-1.21053e-05      2.60050      129.382 
-0.000403505      4.37233      36.1623 
0.000113595      2.00960     -8.00914 
-7.05524e-05      2.90259     -79.0772 
-1.20696e-05      5.57109     -129.318 
-8.09828e-05      4.51717     -73.0092 
-0.000127283      5.54355     -108.729 
2.35361e-05      6.13169     -111.628 
-0.000277713      6.44475     -161.734 
0.000427464      5.65014     -44.3546 
-4.65188e-05      5.56335     -129.384 
-0.000295697      5.44868     -48.6459 
4.70415e-05      3.51205     -34.9118 
-4.65303e-05      2.59278      129.523 
0.000208924      3.09302      19.2551 
-0.000134560      5.99854      164.133 
0.000111301      1.28725     -170.611 
0.000211012      4.26954     -162.414 
0.000282941      3.85053      26.3654 
3.46598e-05      2.59116     -10.2257 
-3.49394e-05      5.23759     -59.2239 
-1.17757e-05      4.44042     -58.3502 
7.86910e-05      3.26559      169.413 
-4.60254e-05      5.62670     -78.3106 
-0.00104902      8.25608     -136.816 
-2.32801e-05     0.952103      162.897 
0.000297400      7.18913     -139.174 
-6.83587e-05      3.15687     -19.8125 
7.87531e-05      4.52134      165.134 
0.000274361      4.11196      12.7857 
1.16077e-05      2.36603     -171.493 
-0.000453132      6.59918     -139.794 
-8.94178e-05      3.80316      104.621 
4.55882e-05      6.24238     -168.636 
1.15713e-05      4.25470     -50.4358 
-1.15652e-05      6.20116     -99.2800 
-1.15197e-05      2.87221     -12.8750 
-6.74481e-05      6.31450     -134.808 
-0.000133230      5.86169     -156.365 
3.38829e-05      6.64581      152.972 
-1.15032e-05      3.98629     -127.560 
-0.000421177      7.36699     -130.762 
-0.000472333      8.40817     -134.277 
-0.000174226      6.66118     -66.7449 
3.37059e-05      1.88096     -8.56089 
-0.000142881      7.56606     -134.893 
-2.24074e-05      6.81211     -136.606 
-3.36777e-05      2.87446     -13.0693 
7.77768e-05      3.50960     -35.1391 
1.13648e-05      6.15033      174.308 
-1.13718e-05      5.58659      171.145 
-5.55674e-05      7.29603     -137.277 
-3.37456e-05      7.65101     -135.318 
-2.23853e-05      4.43518     -58.4602 
6.60398e-05      4.17221      48.4007 
-0.000180371      7.36644     -146.180 
0.00171539      7.52588     -144.409 
4.35640e-05      5.50343      48.3146 
2.20690e-05      6.31569      165.700 
-2.22176e-05      5.58814      171.043 
-1.11418e-05      2.56759     -96.7098 
0.000150057      6.14781     -167.411 
-1.11143e-05      3.62083      16.0323 
-4.35287e-05      4.21865     -127.875 
-0.000129238      3.14746     -19.8742 
-1.10863e-05      2.58507      129.664 
-7.58101e-05      6.19606     -142.871 
-8.61408e-05      7.92182     -129.417 
-0.000564788      3.63044      15.9888 
-0.000182202      2.82708      71.4369 
-0.000304440      5.54034     -108.631 
7.49510e-05      2.75218      79.9558 
-0.000455765      7.60201     -143.236 
1.09931e-05      6.12801     -111.541 
4.28253e-05      3.30238      45.6134 
-0.000155239      4.51426     -73.1306 
7.44776e-05      4.92468     -168.165 
6.40160e-05      2.99923      125.227 
-1.09590e-05      7.95367     -140.305 
0.000137625      5.67297     -84.8421 
0.000176682      3.95592     -11.9633 
-4.32015e-05      4.91158      154.687 
3.22369e-05      4.28882     -37.9922 
1.08962e-05      5.61664      162.275 
0.000957309      5.37249      40.0923 
-1.08975e-05      2.70352      5.73168 
8.44195e-05      7.33736     -132.957 
-0.000673601      7.94728     -140.361 
-0.000319300      3.71436     -15.4581 
-1.08561e-05      2.57099      129.634 
-4.28333e-05      4.02940      116.692 
1.08066e-05      3.60068      68.4941 
-1.07924e-05      6.18809     -142.815 
1.07902e-05      3.96122      8.27329 
8.44279e-05      4.16473      48.3093 
5.28829e-05      5.61969      162.178 
9.43309e-05      7.81446     -137.593 
0.000227433      7.94793     -135.204 
6.27074e-05      7.80033     -137.598 
-0.000103209      6.60097     -63.7455 
1.06866e-05      3.79096      69.4616 
-0.000156932      7.55900     -134.839 
0.000881726      7.03529      150.447 
-1.06377e-05      2.54922      129.748 
-2.11505e-05      3.88000     -42.0750 
-1.06221e-05      3.80000      53.1301 
-2.11633e-05      5.59072      42.6804 
-1.05925e-05      5.40231      135.150 
6.22952e-05      3.80384      69.3734 
-6.14516e-05      3.58113     -150.930 
1.05616e-05      3.91127      24.4682 
-1.05534e-05      2.40277      59.4861 
-8.26651e-05      6.18205     -142.889 
-6.23652e-05      4.02492      116.565 
1.05355e-05      6.66817      152.974 
-0.000103227      5.44118     -48.5763 
0.000420381      3.10247      19.1942 
4.16796e-05      3.23608     -172.721 
-2.08809e-05      4.90254      154.637 
-0.000233503      5.58395      42.6050 
-4.13249e-05      5.87486     -156.315 
-1.04983e-05      2.53387      130.037 
0.000131346      2.72855      113.088 
7.15097e-05      4.27926     -38.2625 
0.000143987      4.12171      12.7550 
-8.25668e-05      3.13466     -19.7645 
5.14245e-05      3.89965     -17.4592 
-2.07450e-05      4.23268     -127.899 
-0.000111194      3.88075     -41.8665 
-1.04231e-05      4.04401     -2.55110 
-6.11335e-05      7.92818     -129.472 
-0.00122891      6.44162     -161.818 
-1.03950e-05      2.52622      130.183 
6.06483e-05      1.29711     -170.683 
3.05755e-05      4.25979     -50.1428 
-0.000321316      4.03402     -2.55742 
9.12724e-05      7.18157     -139.122 
-2.04975e-05      1.02176     -139.764 
-6.09857e-05      5.29601      50.9009 
-1.03644e-05      2.93205     -79.1883 
2.05125e-05      1.25100     -87.7094 
-1.03450e-05      3.81033      104.437 
0.000101222      1.90919     -135.000 
4.04713e-05      2.01950     -7.96961 
1.03328e-05      5.81898     -118.988 
4.11017e-05     0.269072     -138.013 
0.000282605      8.03881     -138.278 
0.000121551      6.13588     -167.481 
-0.000424868      6.66513     -66.6660 
6.08641e-05      5.51008      48.2369 
-5.08281e-05      2.51859      130.330 
8.09423e-05      4.15727      48.2177 
-8.11110e-05      2.82392      71.6292 
-0.000725975      7.54486     -134.839 
-1.02690e-05      5.63121     -150.066 
-4.04504e-05      4.11005      99.8061 
-7.98055e-05      4.22655     -127.792 
2.03308e-05      6.68162      152.936 
-1.02302e-05      2.94187     -79.2248 
-2.04940e-05      7.59400     -143.190 
2.02763e-05      7.58808     -127.127 
-3.02712e-05      3.80601      53.0097 
6.01089e-05      4.27908     -162.454 
0.000139243      5.67208     -84.9428 
-1.02147e-05      4.89826      154.743 
-0.000119714      4.01598      116.629 
-0.000617603      7.60800     -143.175 
2.02943e-05      3.23483     -172.897 
0.000159770     0.254951     -138.180 
4.02068e-05      5.81023     -119.035 
-2.01134e-05      5.09966     -147.899 
-1.01652e-05      6.30741     -134.872 
-4.02402e-05      3.12187     -19.6538 
-2.02362e-05      2.95169     -79.2611 
1.01412e-05      5.21921     -176.595 
-0.000903927      8.41515     -134.326 
1.01081e-05      4.91490     -168.141 
1.01066e-05      4.98443     -34.4552 
0.000139810      4.13146      12.7244 
-1.01065e-05      5.04747     -144.515 
-1.00972e-05      4.88922      154.693 
-3.01430e-05      1.37004     -142.712 
4.01458e-05      7.33055     -132.899 
-0.000666880      3.71171     -15.3093 
-0.000421447      4.36426      36.2397 
-4.99919e-05      3.08691     -19.4915 
-1.99597e-05      6.29327     -134.871 
2.00520e-05      5.65714     -44.4271 
1.00592e-05      7.95503     -135.255 
1.00438e-05      4.66889     -105.912 
-1.00328e-05      3.09968     -19.6041 
-0.000276908      5.53716     -108.533 
8.90262e-05      3.80737      69.2326 
-2.98557e-05      6.17603     -142.963 
2.00164e-05      7.94799     -135.306 
-9.99833e-06      4.87165      154.855 
0.000147664      3.92001      37.0161 
1.99653e-05      3.88361     -17.6885 
1.99286e-05      3.85949      26.2995 
-9.97838e-06      5.88402     -156.354 
1.99165e-05      4.68125     -105.996 
9.98484e-06      7.95511     -135.357 
-0.00102769      6.50680      160.145 
2.98842e-05      4.50352      26.2237 
0.000417321      7.97662     -135.610 
2.96692e-05      4.27763     -38.4506 
-9.96492e-06      2.96339     -79.1072 
-2.97079e-05      2.51213      130.156 
0.000538315      3.96570     -11.9333 
-8.88654e-05      1.37612     -142.381 
1.98763e-05      5.47496     -120.030 
-0.000255042      3.10910     -19.5423 
-0.000108195      5.28825      50.8326 
-0.000587213      5.57719      42.5294 
0.000157512      5.59494     -98.7384 
1.98675e-05      4.50809      26.0535 
-6.90239e-05      3.60001      89.8408 
5.91929e-05      4.14982      48.1257 
1.98365e-05      3.89012     -17.5034 
-6.86801e-05      3.58600     -150.790 
9.79778e-05      4.99009     -34.5499 
1.98356e-05      8.27167     -132.893 
-9.92072e-06      5.63170     -51.0542 
0.000215180      6.64850      145.665 
-3.94870e-05      2.95357     -79.0705 
0.000431295      4.49911      26.1094 
-7.85164e-05      4.51136     -73.2521 
-0.000117732      7.65813     -135.370 
5.93491e-05      4.14122      12.6939 
0.000455287      5.46631     -120.083 
0.000107621      6.12612     -167.461 
-6.90418e-05      7.65598     -131.770 
-9.89070e-06      7.49533     -139.979 
3.92661e-05      4.67850     -105.878 
6.86230e-05      5.46004     -173.057 
-2.95525e-05      5.62542     -51.1334 
0.000107753      1.30863     -170.322 
0.000107967      8.03216     -138.331 
5.88953e-05      3.87408     -17.7334 
4.90462e-05      2.73059     -159.640 
-0.000166246      2.71448      5.92062 
8.85822e-05      4.15318      12.7982 
0.000117903      7.96962     -135.661 
-0.000146575      5.65099      169.704 
-5.87457e-05      8.64086     -134.906 
1.95870e-05      5.81509     -119.122 
9.84196e-06      7.17503     -139.182 
-9.83347e-06      3.98764     -108.571 
-4.89902e-05      6.59655     -63.8234 
9.84589e-06      4.26653     -162.542 
-2.94455e-05      3.90738      3.52145 
-0.000312194      6.59155     -139.738 
0.000107437      3.52346      70.4337 
-1.96355e-05      5.47030     -48.7057 
-0.00174083      7.60000     -143.130 
-0.000389958      4.02403     -2.56377 
-0.000380497      7.64186     -131.764 
9.81715e-06      1.91732      46.9021 
-1.95750e-05      6.27912     -134.871 
9.81437e-06      3.22490     -172.875 
4.88876e-05      4.27607     -162.582 
0.000127214      4.16293      12.7677 
0.000107434     0.247588     -136.637 
-6.83569e-05      5.61763     -51.0694 
9.80491e-06      5.66428     -44.3563 
1.95593e-05      7.78621     -137.603 
1.95877e-05      1.47003     -52.7403 
9.80573e-06      5.52342      48.0822 
7.80095e-05      3.55535     -31.5442 
0.000282615      7.97678     -135.711 
-2.92668e-05      7.36046     -130.703 
-9.78957e-06      2.50450      130.304 
0.000243542      6.03709      157.811 
-2.92764e-05      3.87408     -41.7564 
1.95646e-05      4.15650      48.0230 
-9.75498e-05      1.39014     -142.306 
-0.000282484      5.53399     -108.435 
-2.92671e-05      4.01151      116.501 
1.95158e-05      1.90213     -134.787 
-9.78435e-06      3.60006      89.6817 
1.95269e-05      7.18260     -139.234 
-9.77579e-06      5.48441     -48.6961 
-9.73841e-05      3.59001      89.8404 
-9.76974e-06      4.55422      41.7067 
-9.75971e-06      2.95549     -78.8802 
-4.86912e-05      3.90678      3.37507 
-5.84127e-05      5.49193     -48.7650 
0.000196843      5.59343     -98.6371 
-9.75996e-06      2.50569      129.981 
9.76364e-06      1.48405     -52.6668 
0.000116807      8.03963     -138.378 
0.000155837      4.17269      12.7373 
4.86767e-05      4.14238      48.0334 
2.92105e-05      3.86456     -17.7786 
0.000107224      3.52683      70.2806 
-1.94639e-05      4.24058     -127.816 
1.94998e-05      4.56885      31.3939 
9.73044e-05      1.26921     -80.0182 
3.89384e-05      4.23080      38.9559 
-6.80932e-05      4.54010      41.6964 
3.89115e-05      3.79448      69.3202 
-0.000214360      8.62671     -134.906 
-1.94648e-05      2.49804      130.129 
9.72954e-06      2.72729      113.557 
-8.75229e-05      3.09634     -19.4298 
9.74194e-06      5.53011      48.0051 
1.94550e-05      1.47611     -52.4314 
3.88955e-05      2.73408     -159.444 
3.88855e-05      4.60479      120.686 
-1.94602e-05      6.27204     -134.935 
0.000166499      1.31848     -170.395 
4.86292e-05      4.55511      31.3520 
0.000205549      4.24487      38.9760 
4.88702e-05      7.33108     -132.789 
1.94377e-05      5.53680      47.9282 
-1.94397e-05      5.61615     -50.9259 
9.71788e-06     0.240832     -138.366 
-3.88737e-05      5.05586      44.7596 
-8.75026e-05      1.40417     -142.232 
-1.94482e-05      3.57728     -150.712 
0.000570048      4.49472      25.9950 
-8.77067e-05      6.60113     -63.9396 
0.000147530      5.68117     -85.0521 
0.000215393     0.233452     -136.736 
6.80461e-05      8.25073     -132.839 
-0.000107071      2.70453      5.94247 
0.000165351      4.18244      12.7071 
-9.71873e-06      3.89622      3.23693 
3.88955e-05      3.90601      36.9872 
-6.81267e-05      2.82151      164.585 
-1.94224e-05      5.60986     -51.0052 
-7.79418e-05      5.64115      169.686 
-5.12904e-05      5.72661     -165.333 
9.70821e-06      1.89505     -135.000 
0.000178763      6.11635     -167.441 
0.000146086      1.27738     -80.5377 
-3.89051e-05      3.90620      3.22865 
-9.70284e-06      6.25790     -134.935 
-9.72171e-06      6.08830     -49.7968 
-2.91659e-05      2.49928      129.806 
9.71964e-06      5.73059     -117.996 
3.88996e-05      4.60831      120.516 
-5.84400e-05      5.49945     -48.8337 
6.80956e-05      8.02552     -138.384 
-9.72024e-06      4.95686      45.2452 
3.89974e-05      7.17607     -139.295 
0.000146519      3.83964     -70.5269 
0.000642991      7.51192     -144.427 
-0.000324788      3.10577     -19.3684 
-5.83353e-05      4.94272      45.2459 
-3.89222e-05      5.60840     -50.8615 
0.000107098      7.98376     -135.660 
0.00537058      7.04023      150.376 
-6.83059e-05      4.53345      41.6021 
9.71894e-06      4.23266      106.894 
-9.72001e-06      6.09361     -49.5925 
2.93292e-05      3.85504     -17.8239 
0.000688374      4.48573      26.0509 
-8.77610e-05      6.80744     -152.532 
-9.73432e-06      4.50179     -73.2154 
3.90000e-05      4.22309      106.933 
-0.000367087      5.53083     -108.337 
9.72490e-06      4.26823     -38.7227 
2.92466e-05      4.54137      31.3100 
-0.000127079      4.35029      36.2114 
-9.72836e-06      5.72409     -165.430 
-8.77561e-05      4.93569      45.3283 
-5.86032e-05      1.42611     -142.407 
7.81900e-05      8.24394     -132.788 
3.89777e-05      3.93449      155.845 
0.000186047      4.19219      12.6770 
-2.93413e-05      6.25082     -135.000 
-3.91999e-05      3.59006      89.6808 
-0.00130938      6.50341      160.228 
2.93152e-05      4.61693      120.453 
-3.91334e-05      3.89566      3.09009 
-0.000112508      5.71441     -165.404 
1.95262e-05      3.94362      155.905 
0.000203373      5.45766     -120.136 
-3.92017e-05      5.60697     -50.7178 
9.83543e-05      8.03299     -138.432 
-9.75364e-06      3.59089     -150.651 
-1.95833e-05      2.49161      129.953 
0.000530242      8.40857     -135.915 
-9.87325e-05      6.66910     -66.5871 
0.000266951      3.93859      155.713 
-9.76500e-06      4.24848     -127.733 
-0.000167974      4.01404     -2.57016 
9.97305e-05      3.79803      69.1791 
6.87607e-05      4.53282      31.3756 
-0.000168594      5.34150      131.509 
2.93968e-05      6.04635      157.847 
-0.000247304      4.92154      45.3293 
-0.000168946      4.01140      31.2332 
0.000142219      5.58205     -98.5511 
-0.00182649      8.24879     -136.768 
-4.93113e-05      2.81187      164.530 
1.95991e-05      1.27906     -80.0958 
-9.79432e-06      6.79857     -152.493 
-9.79046e-06      5.50699     -48.9022 
4.97451e-05      2.74696     -159.322 
3.94479e-05      6.65676      145.713 
-0.000179703      6.79395     -152.567 
0.000111494      3.11191      19.1336 
9.80673e-06      5.72591     -117.908 
9.81414e-06      3.38378     -162.101 
0.000118729      1.28565     -81.0505 
-0.000825908      8.61257     -134.906 
9.81994e-06      4.26671     -38.9115 
5.92919e-05      4.62050      120.283 
-9.82875e-06      6.11204     -49.2462 
-1.97303e-05      5.50042     -48.9807 
0.000119533      8.23715     -132.737 
-2.97060e-05      2.69357      5.75292 
-5.96075e-05      4.51934      41.5914 
0.000179641      3.81560      20.2397 
0.000172231      6.05186      157.970 
-7.93973e-05      1.44014     -142.334 
5.95030e-05      3.97549     -11.9035 
7.06603e-05      4.22976      106.764 
-0.000129579      7.66265     -131.826 
0.000939969      4.20195      12.6471 
2.98396e-05      3.38687     -161.940 
0.000109757      3.83694     -70.1955 
-0.000487160      4.35620      36.3175 
-9.84724e-06      5.60558     -50.5739 
-3.96635e-05      5.63131      169.668 
2.98777e-05      5.55023      47.7749 
8.31530e-05      3.53624      70.3353 
-0.000212577      5.57043      42.4536 
3.96167e-05      6.11945     -93.1850 
-5.98023e-05      3.88515      2.95078 
-7.06120e-05      6.58392     -139.682 
-2.97402e-05      5.59923     -50.6530 
0.000101811      7.33843     -132.736 
-9.90768e-06      6.11857     -49.1753 
0.000192583      4.52763      31.2676 
-3.99840e-05      2.48520      129.776 
7.08881e-05      7.16955     -139.355 
1.99030e-05      3.84552     -17.8695 
9.93281e-06      5.55695      47.6986 
-0.00174686      7.59200     -143.085 
-1.99183e-05      6.12412     -48.9725 
0.000152387      8.01888     -138.438 
-9.94549e-06      5.13767     -170.024 
0.000131936      6.11890     -93.0915 
-2.00090e-05      6.23668     -135.000 
-2.01419e-05      5.50797     -49.0489 
-0.000379237      8.40800     -134.374 
-0.000209405      5.13942     -169.915 
1.99932e-05      4.62411      120.114 
-0.000188926      5.59786     -50.5089 
-9.29314e-05      6.03511     -173.817 
-3.00725e-05      6.12974     -48.7701 
0.000142362      1.28725     -80.6109 
1.00028e-05      5.71239     -117.866 
-0.00260204      4.65237      27.9421 
0.000123938      3.82958     -18.1038 
-2.01614e-05     0.630635     -75.3027 
-0.000540156      4.90740      45.3302 
8.16363e-05      4.61854      118.729 
-0.000133202      4.02359     -2.42151 
4.03869e-05      5.57245      44.2729 
7.47997e-05     0.226274     -135.000 
0.000262549      3.94271      155.580 
-5.05412e-05      6.13544     -48.5681 
-5.08105e-05      1.45417     -142.263 
0.000352055      5.66711     -94.4530 
0.000154046      4.13456      96.2484 
0.000174322      3.37099     -108.327 
-8.56123e-05      6.57745     -139.748 
2.03210e-05      4.23117     -161.822 
-5.09466e-05      3.10247     -19.1942 
-2.05199e-05      6.24376     -135.065 
0.00131765      7.99331     -131.247 
-0.000570480      5.34813      131.589 
-4.08546e-05      3.87466      2.81071 
-0.000102972      7.67677     -131.832 
0.000305417      8.23036     -132.686 
-0.000102495      6.14121     -48.3665 
0.000188952      5.57962      44.2013 
4.20815e-05      1.31685     -170.824 
-1.01899e-05      2.48652      129.452 
-0.000198594      4.00285      31.3074 
-3.11728e-05     0.633246     -74.4275 
-2.06651e-05      7.33873      146.505 
9.37696e-05      3.80622      20.2918 
1.02515e-05      3.37737     -161.887 
-3.08992e-05      3.90437      141.134 
-0.000517152      3.64560      16.2476 
-0.000225460      3.09302     -19.2551 
0.000200018      3.99431     -6.32435 
0.000116785      7.96947     -135.559 
-0.000115696      6.78047     -152.604 
1.03059e-05      4.23430     -161.693 
3.14420e-05      3.83437     -69.8637 
-6.28332e-05      1.46820     -142.193 
-0.000167522      6.14706     -48.1652 
-3.13847e-05      2.47881      129.598 
3.13043e-05      7.17714     -139.407 
-3.12677e-05      3.86467      2.81798 
0.000203599      1.28891     -80.1723 
6.43763e-05      4.22481     -161.651 
-2.09427e-05      3.19188      137.412 
-8.48638e-05      3.89513      140.835 
3.18358e-05      4.62731      118.670 
0.000140102      6.26929     -167.471 
3.17987e-05      3.98437     -6.34019 
-0.000443293      4.01360     -2.42754 
0.000312198      4.51389      31.2250 
3.16172e-05      4.62252      118.561 
0.000130462      6.11837     -92.9980 
-2.10520e-05      7.69089     -131.838 
0.000749334      4.13349      96.1106 
0.000198054      8.01225     -138.491 
0.000108614      5.52319     -102.124 
-0.000153711      3.85421      2.67681 
2.12019e-05      7.16304     -139.416 
-3.17632e-05      7.71169     -131.899 
-1.05745e-05      6.22962     -135.065 
2.12639e-05      6.06113      158.005 
-0.00399029      6.15374     -48.0958 
0.000302214      3.79338      20.2025 
-1.06758e-05      1.48223     -142.125 
-9.83766e-05      7.72581     -131.905 
0.00103714      4.49035      25.8803 
3.28996e-05      3.80159      69.0382 
0.000241004      7.17064     -139.468 
0.00248180      5.27714     -38.8463 
-0.00100632      6.12082     -179.064 
-8.74586e-05      3.53968     -155.462 
0.000280787      6.05562      157.882 
-2.16360e-05      2.48018      129.273 
-0.00187963      6.43851     -161.903 
-1.07951e-05      1.49013     -142.361 
9.29847e-05      5.46249     -172.849 
5.54227e-05      4.63131      118.502 
1.08449e-05      3.82845     -69.6717 
0.000262939      5.59376      44.2033 
0.000152780      4.98812     -37.2604 
-0.000100674      3.88599      140.534 
2.20656e-05      3.82008     -18.1504 
-9.01480e-05      6.76699     -152.640 
-0.000108205      1.50416     -142.292 
4.46452e-05      4.28165     -47.3662 
-4.43409e-05      3.72688      77.6046 
-2.19825e-05      3.84756      138.688 
0.000101539      7.50379     -144.382 
3.36042e-05      4.11175     -7.12502 
2.24085e-05      7.34577     -132.683 
0.000307147      5.47241     -172.862 
-7.91517e-05      5.86123     -151.686 
0.00189058      8.39443     -135.917 
-3.37771e-05      2.47245      129.420 
1.11060e-05      3.53962      70.1828 
0.000463172      6.26713     -167.560 
-0.000215652      7.59801     -143.025 
-3.39553e-05      3.84849      138.898 
-0.000559940      8.40086     -134.421 
-1.11949e-05      6.03619     -173.723 
0.000207361      7.96935     -135.458 
-0.000103278      3.53058     -155.395 
0.000226498      3.95182      155.640 
-0.000361925      4.03407     -27.1367 
9.53203e-05      3.53021      70.1278 
-0.000266637      5.71694     -165.307 
-0.000250397      5.59652     -50.3648 
-9.13933e-05      4.91444      45.2473 
0.000168515      1.29711     -80.6829 
-0.000166189      7.73993     -131.910 
0.000310577      4.22797     -161.522 
-0.000162008      3.73880      77.4878 
-0.000242695      3.08974     -19.0800 
-0.00319957      6.50004      160.311 
-0.00458265      7.60600     -143.070 
0.000143641      6.11786     -92.9045 
5.88504e-05      5.53507     -102.203 
-6.19358e-05      6.05287     -72.1039 
-0.000158264      5.52769     -108.238 
-0.000664982      4.90030      45.2480 
-6.07022e-05      6.02625     -173.712 
4.70999e-05      4.63534      118.334 
5.96178e-05      4.28109     -47.1771 
-7.46384e-05      3.71874     -15.1200 
-3.63385e-05      3.54775     -101.215 
3.54023e-05      4.12167     -7.10778 
0.000440628      4.98016     -37.3301 
0.00109228      5.37130      40.2426 
-7.15083e-05      3.84948      139.108 
-0.000518138      5.14118     -169.805 
-3.55629e-05      2.47386      129.094 
-4.78787e-05      4.19142     -66.3706 
-0.000232236      3.84376      2.53488 
0.000131949      7.99813     -138.497 
2.34928e-05      3.12136      19.0735 
-0.000565648      4.02318     -2.27923 
-8.42880e-05      3.87696      140.232 
-8.47395e-05      6.76240     -152.715 
-2.38699e-05      5.86598     -151.600 
-0.000121183      3.52149     -155.327 
0.00266865      4.21171      12.6173 
-4.89666e-05      5.87478     -151.646 
-0.000394347      3.65520      16.2038 
2.43847e-05      3.53142      65.7575 
1.20147e-05      7.35991     -132.687 
-0.000489106      3.83377      2.54149 
0.000281589      5.60790      44.2053 
4.99789e-05      3.13409      19.1865 
0.000103925      6.09250     -167.583 
1.22067e-05      4.64415      118.276 
-2.47888e-05      2.46611      129.240 
6.32192e-05      5.07190     -81.0391 
6.45661e-05      4.12292     -7.24568 
5.07442e-05      6.73428     -155.338 
1.23084e-05     0.806226      119.745 
-5.07259e-05      6.56982     -139.692 
-0.000883044      4.02517     -27.2016 
-0.000118406      3.85052      139.318 
1.24059e-05      4.63942      118.167 
5.02700e-05      7.16415     -139.529 
3.76837e-05      5.54696     -102.282 
7.58300e-05      8.00562     -138.545 
-6.49063e-05      3.86804      139.929 
0.000101430      4.35124      46.9557 
-0.000226140      6.74893     -152.752 
-0.000154732      3.51241     -155.259 
5.09278e-05      4.64824      118.109 
2.60341e-05      1.32834     -170.467 
-5.29134e-05      4.19659     -66.5504 
0.000226170      5.33619     -72.8894 
-2.53095e-05      7.74661     -131.965 
-0.000119449      5.87953     -151.561 
-0.000633342      5.35397      131.820 
2.56739e-05      3.82256     -69.4790 
0.000148134      6.11736     -92.8110 
0.00597916      5.35721      40.2301 
-0.000121827      3.85922      139.624 
6.75750e-05      4.28057     -46.9880 
0.000220045      3.96093      155.700 
-0.000125939      2.46757      128.914 
-0.000290315      7.76074     -131.971 
1.28592e-05     0.219317     -133.152 
3.92013e-05      5.55887     -102.361 
0.000161507      7.17176     -139.581 
0.000163144      1.30541     -81.1871 
0.000302738      7.99151     -138.551 
7.90489e-05      6.44376     -114.576 
0.000160886      5.47366     -172.758 
-0.000792722      3.09595     -18.8446 
-8.01303e-05      6.24677      145.369 
0.000259783      6.05939      157.795 
0.000136587      3.78054      20.1126 
-8.04787e-05      5.52457     -108.140 
5.39670e-05      3.14682      19.2986 
8.14472e-05      4.65237      117.942 
1.32150e-05      5.03759      138.621 
-0.000221770      3.50333     -155.191 
2.71434e-05      5.67212      173.013 
2.70756e-05      5.07347     -80.9276 
-0.000344494      8.38672     -134.420 
4.06513e-05      5.07356     -177.854 
9.89316e-05      5.57346      133.691 
0.000237712      6.19026      171.359 
0.000716971      6.43466     -114.613 
-4.20554e-05      3.55756     -101.184 
2.74880e-05      5.87555     -119.576 
-0.000438158      4.02280     -2.13691 
2.76692e-05      5.57078     -102.440 
-0.000127978      3.82378      2.54813 
-0.00114207      3.66760      16.3102 
1.36528e-05      5.61507      44.1341 
9.87120e-05      5.76590     -100.998 
2.78529e-05      5.03850      138.782 
0.000201818      5.62921      44.1363 
-0.000300846      4.90734      45.1651 
0.000741200      4.13243      95.9727 
7.71437e-05      4.50016      31.1821 
-4.19024e-05      5.52147     -108.041 
1.38028e-05      8.22359     -132.635 
0.000349380      6.26498     -167.650 
5.83780e-05      3.38049     -108.274 
-0.00137945      8.24151     -136.721 
-0.000133340      6.23854      145.316 
0.000190698      5.06320     -177.963 
2.81184e-05      7.97648     -135.508 
0.000285824      6.08059     -167.655 
0.000188070      7.19863     -55.1840 
-1.39037e-05      3.44838      38.9971 
1.39113e-05      4.13284     -7.22819 
-0.000992924      5.80535      45.0698 
0.000370706      5.48358     -172.771 
-2.94206e-05      3.71614     -14.9711 
-0.000105727      6.57630     -139.626 
0.000221290      5.33914     -72.7868 
-5.76691e-05      5.60290     -50.2861 
5.75636e-05      7.17937     -139.632 
-0.000195030      1.69956     -154.189 
1.42245e-05      3.15957      19.4099 
-4.31384e-05      5.51838     -107.942 
1.42565e-05     0.198494     -130.914 
-0.000545133      3.85161      139.528 
2.92160e-05      5.68205      173.025 
0.000513311      1.30698     -80.7539 
-7.74589e-05      5.89309     -151.521 
-0.000123252      3.44209      38.8678 
4.42388e-05      3.16901      19.3498 
2.97518e-05      4.88636      139.399 
9.11267e-05      5.67708     -94.4451 
-2.97078e-05      1.69579     -4.73558 
-0.000541553      3.49425     -155.122 
0.000107092      6.11688     -92.7174 
0.000169145      4.35855      47.0454 
1.46056e-05      3.99542     -6.46688 
-7.44442e-05      5.51531     -107.844 
4.50549e-05      5.03945      138.942 
-0.000170219      6.74436     -152.827 
0.000263241      3.77115      20.1648 
6.13720e-05      4.64769      117.833 
1.46545e-05      6.08100     -113.656 
1.46867e-05      5.58271     -102.518 
5.97147e-05      7.17290     -139.693 
7.49646e-05      5.77763     -101.077 
0.000255886      3.71303      131.288 
0.000383887      7.97739     -138.557 
-0.000139846      5.60930     -50.2075 
0.000283801      7.26722     -57.0753 
-3.01142e-05      3.55563     -101.026 
-0.000417573      4.92148      45.1646 
-3.08168e-05      6.02735     -173.618 
-0.000261691      7.77486     -131.976 
9.71608e-05      5.78001      146.502 
0.000114557      5.97501      152.920 
0.000109091      5.64335      44.1385 
7.85540e-05      3.18176      19.4600 
-1.52875e-05      5.51225     -107.745 
-0.00225648      7.61400     -143.115 
0.000725362      7.98672     -131.193 
1.53808e-05      7.19042     -55.1385 
0.000501295      5.34575     -72.9209 
0.000127963      7.18053     -139.745 
3.12217e-05      3.56484      27.5714 
-0.000145452      5.52483     -107.812 
-0.000100610      2.46130      128.733 
-3.13490e-05      3.55373     -100.867 
0.000336963      5.77956     -101.174 
1.55653e-05      1.33989     -170.116 
4.79023e-05      6.65280     -129.817 
-1.56009e-05      4.20181     -66.7298 
9.62025e-05      7.18221     -55.0929 
-0.000113270      3.84294      139.221 
-0.000662880      5.35990      132.051 
0.000183935      5.05286     -178.072 
-0.000166467      8.37257     -134.419 
0.000104167      4.89287      139.310 
0.000242877      4.05771     -40.4022 
-0.000434359      4.03243     -1.98962 
-0.000173490      4.86334     -32.3176 
6.48433e-05      5.66467      44.0702 
0.000173072      5.67786     -94.5458 
-1.60205e-05      1.68668     -5.10217 
-1.60386e-05      3.56545     -100.995 
0.000382643      5.27087     -38.7617 
0.000119688      3.55598      27.6460 
-0.000263298      1.70857     -154.335 
0.000423703      6.09036     -167.675 
0.000121970      4.24063     -161.437 
-0.000286398      5.52178     -107.713 
3.31851e-05      6.42816      155.947 
-3.29742e-05      3.56355     -100.837 
0.000319933      6.18876      171.451 
-0.000193312      5.61570     -50.1291 
0.000123294      3.81760      13.6358 
1.63963e-05      3.96506      155.568 
0.000195135      3.19453      19.5694 
0.000158412      6.12687     -92.7130 
-3.34061e-05      6.58278     -139.559 
6.66396e-05      5.67881      44.0725 
-3.33240e-05      3.42803      38.8425 
0.000138207      7.17402     -55.0472 
0.000106359      4.64303      117.724 
-1.66780e-05      6.23602      145.189 
0.000195563      7.18171     -139.857 
8.47823e-05      7.26428     -56.9662 
1.67674e-05      5.04045      139.103 
-8.73559e-05      3.56168     -100.679 
0.000160575      5.83120     -167.823 
0.000285414      5.70014      44.0049 
-1.69700e-05      1.67765     -5.47271 
-0.000126375      6.73090     -152.864 
-0.000143464      3.42177      38.7121 
0.000346294      7.26973     -56.9001 
5.21289e-05      5.51661     -177.195 
-7.15634e-05      6.56868     -139.569 
-0.00102605      6.49668      160.394 
0.000163303      5.49477     -172.681 
-1.72842e-05      3.75073      77.3718 
-0.000182259      2.17329      173.660 
7.24343e-05      6.41903      155.911 
-0.000273638      4.92854      45.0822 
-0.000146080      5.72915     -165.236 
0.000256746      7.97078     -138.611 
9.13443e-05      2.12085     -74.1288 
-0.000330568      3.48518     -155.053 
1.77589e-05      6.06865      157.830 
0.000147412      5.51711     -177.091 
9.24217e-05      3.72055      131.186 
7.37002e-05      5.77720      146.365 
-1.79076e-05      1.65979     -6.22583 
-9.19667e-05      8.35843     -134.418 
5.49596e-05      5.97938      153.049 
-9.21819e-05      7.78155     -132.031 
-0.000149346      6.12066     -179.157 
0.000131060      7.16582     -55.0014 
5.62600e-05      5.60483     -98.7228 
-1.82829e-05      7.78898     -131.982 
-1.83064e-05      3.84401      139.431 
3.74553e-05      2.76702     -158.814 
0.000112612      5.79131     -101.252 
3.73320e-05      5.04254     -178.182 
5.61941e-05      3.54713      27.7209 
1.85898e-05      4.48642      31.1390 
-3.75021e-05      3.55985     -100.521 
-3.76497e-05      5.62212     -50.0509 
-3.80958e-05      6.57517     -139.503 
3.81426e-05      5.84098     -167.844 
5.69796e-05      5.71428      44.0074 
-3.80855e-05      2.89062     -91.1894 
3.82403e-05      6.42557     -114.651 
1.90989e-05      1.38051     -172.926 
-3.82471e-05      5.79829      45.1397 
-1.90917e-05      1.64222     -6.99519 
1.91257e-05      7.17527     -139.918 
-1.91294e-05      3.64905      39.8860 
-1.91719e-05      7.79567     -132.036 
1.91736e-05      6.06318      157.707 
1.92204e-05      4.94101     -178.840 
-1.92600e-05      3.67720      16.2664 
-1.93132e-05      4.04209     -1.84304 
