! Center RA: 09 58 47.24511,  Dec: +65 33 54.81805 (2000.0)
! Established model.
! Flux (Jy) Radius (mas)  Theta (deg)  Major (mas)  Axial ratio   Phi (deg) T \
! Freq (Hz)     SpecIndex
0.00390439     0.210238      154.654 
 0.0396690     0.219317      155.772 
 0.0402174     0.228473      156.801 
 0.0294705     0.237697      157.751 
 0.0325245     0.250799      156.501 
0.00643719     0.174643     -13.2405 
 0.0274618     0.260000      157.380 
 0.0272486     0.186815     -15.5241 
0.00542438     0.189737     -18.4349 
 0.0169419     0.269258      158.199 
0.00342967     0.196977     -23.9625 
  0.102391     0.201246     -26.5650 
 0.0149981     0.273130      156.251 
0.00455123     0.111803     -169.695 
0.00562354     0.123693     -165.964 
 0.0333667     0.282312      157.068 
0.00644573     0.136015     -162.897 
0.00667669     0.291548      157.834 
 0.0109644     0.286356      155.225 
 0.0216153     0.295466      156.038 
0.00703284     0.290689      153.435 
0.00754203     0.299666      154.290 
0.00102755     0.286531      150.751 
 0.0121216     0.295296      151.699 
 0.0110284     0.308707     -65.0952 
0.00116337     0.412311     -22.8337 
0.00335954     0.304631     -66.8014 
0.00491084     0.427200     -20.5560 
0.000352750     0.300832     -68.5523 
0.00174096     0.306757     -70.9744 
0.00486982     0.303645     -72.7585 
0.00252970     0.442719     -18.4349 
0.00144165     0.421545     -22.3062 
0.00238948     0.300832     -74.5778 
0.00359150     0.416293     -24.1022 
0.00178428     0.298329     -76.4296 
0.00145263     0.296142     -78.3106 
 0.0118310     0.282843     -98.1301 
0.00201708     0.411461     -25.9423 
0.00350018     0.425441     -23.5523 
0.00116668     0.440114     -21.3179 
0.000480901     0.420476     -25.3462 
0.000976860     0.313050     -63.4349 
0.00170798     0.434626     -23.0255 
0.000727884     0.455412     -19.2307 
0.000443432     0.317648     -61.8214 
0.000806875     0.324500     -56.3099 
0.000364480     0.449444     -20.8545 
0.000127743     0.403113     -29.7449 
0.000485591     0.471275     -17.2815 
0.000922966     0.334216     -51.0725 
0.00374356     0.272947     -98.4270 
0.000331622     0.391152     -32.4712 
0.000324006     0.464866     -18.8247 
0.00175211     0.346554     -46.1691 
0.00175455     0.480833     -16.9275 
0.00121366     0.340588     -49.7636 
0.000325343     0.380132     -35.3625 
0.000944388     0.370135     -38.4181 
0.000151625     0.474342     -18.4349 
  0.199568    0.0412311      14.0362 
 0.0509957    0.0300000      0.00000 
0.00653675    0.0316228      18.4349 
0.00959374    0.0200000      0.00000 
0.00126424    0.0100000      0.00000 
0.00125190    0.0509902      11.3099 
0.00123961      0.00000      0.00000 
0.00122773    0.0608276      9.46232 
0.00121628    0.0200000     -180.000 
0.00120504    0.0707107      8.13010 
0.00119452    0.0509902     -168.690 
0.00118454    0.0806226      7.12501 
0.00117483    0.0608276     -170.538 
0.00231264    0.0905538      6.34019 
0.00229446    0.0707106     -171.870 
0.00112999     0.100499      5.71059 
0.00331656    0.0806226     -172.875 
0.00111357     0.111803      10.3048 
0.00324875     0.121655      9.46232 
0.00318316    0.0905538     -173.660 
0.00413494     0.131529      8.74616 
0.00306168     0.100499     -174.289 
0.00488612     0.141421      8.13010 
0.00485644     0.110454     -174.806 
0.00724020     0.151327      7.59464 
0.00457761     0.121655     -170.538 
0.00841076     0.131529     -171.254 
0.00970781     0.161245      7.12502 
 0.0603152     0.141421     -171.870 
0.00215703     0.171172      6.70984 
0.00569408     0.172627      10.0080 
 0.0121193     0.182483      9.46232 
 0.0132028     0.192354      8.97263 
 0.0125504     0.202238      8.53076 
0.00765846     0.203961      11.3099 
0.00118481     0.143178     -167.905 
 0.0111732     0.228254     -28.8108 
0.000194966     0.206155      14.0362 
0.000192297     0.208806      16.6992 
0.000376826     0.211896      19.2900 
0.000367609     0.215407      21.8014 
0.000358742     0.219317      24.2277 
0.000337441     0.223607      26.5650 
0.00943412     0.228254      28.8108 
0.000420697     0.152315      156.801 
0.000275993     0.145602     -164.055 
0.000400580     0.156525      153.435 
0.000382831     0.161245      150.255 
0.000831537     0.166433      147.265 
0.00134958     0.172046      144.462 
0.00525786     0.178045      141.843 
0.00639615     0.332415      173.089 
0.00796155     0.413401     -32.1523 
0.00190291     0.322490      172.875 
0.000802007     0.301496      174.289 
5.88498e-05     0.342345      173.290 
0.00269676     0.420476      177.274 
0.000378887     0.291548      174.094 
0.000480048     0.281603      173.884 
0.000981425     0.271662      173.660 
0.00134007     0.261725      173.418 
0.00114528     0.251794      173.157 
0.000107205     0.241868      172.875 
0.00294607     0.292746      172.147 
0.00192702     0.302655      172.405 
0.00263892     0.343657      171.634 
0.000314891     0.282843      171.870 
0.000206651     0.272947      171.573 
0.000168003     0.253180      170.910 
0.000376718     0.243310      170.538 
0.000328314     0.345253      169.992 
0.000978393     0.240416      163.072 
0.000635281     0.202237      81.4692 
0.00165484     0.250000      163.740 
0.00229711     0.203961      78.6901 
0.00131028     0.259615      164.358 
0.00348878     0.218403      74.0546 
0.000880883     0.269258      164.932 
0.000651898     0.278927      165.466 
0.000477592     0.288617      165.964 
0.000339361     0.298329      166.430 
0.000184250     0.315753      169.046 
0.000173761     0.308058      166.866 
0.000331312     0.325576      169.380 
0.00123046     0.324500      56.3099 
0.000405975     0.335410      169.695 
3.88525e-05     0.317805      167.276 
0.000154900     0.191050      83.9910 
0.000401834     0.355106      170.272 
8.63287e-05     0.224722      159.146 
0.000245805     0.180278      86.8202 
5.16701e-05     0.215407      158.199 
0.000302817     0.364966      170.538 
4.93781e-05     0.170294      93.3665 
0.00164038     0.667083     -66.1247 
0.00486699     0.445982      47.7263 
0.00202854     0.161245      119.745 
0.000615909     0.662118     -64.9831 
0.00130595     0.164012      127.569 
0.000644937     0.167631      107.354 
0.000296592     0.286356      167.905 
0.00172224     0.698570     -76.7595 
0.000282148     0.296142      168.311 
0.000769286     0.661891     -63.0478 
0.00264331     0.466905      46.7357 
0.000462426     0.172627      100.008 
0.000754088     0.450000     -126.870 
7.93611e-05     0.305941      168.690 
0.000308861     0.333766      171.384 
0.00127632     0.452769      46.7899 
0.00229870     0.180278      93.1798 
0.000487316     0.353553      171.870 
0.000278635     0.657647     -61.8763 
0.00221326     0.464004     -127.117 
0.000133133     0.662420     -61.1134 
0.000636878     0.363456      172.093 
0.000893492     0.658635     -59.9314 
0.00362256     0.696348     -77.5604 
0.000787993     0.373363      172.304 
0.00167375     0.190263      86.9872 
0.000456873     0.655134     -58.7363 
0.00188370     0.383275      172.504 
0.00191245     0.660379     -57.9946 
0.00109494     0.458039     -126.119 
0.00187245     0.657343     -56.7934 
0.000984428     0.393192      172.694 
0.000480512     0.460109      178.755 
0.000116807     0.478017     -127.349 
0.00123888     0.472017     -126.384 
0.000529222     0.374833      170.789 
0.000778908     0.694262     -78.3664 
0.000924274     0.460435      177.510 
0.000497403     0.473814      45.8551 
0.000264776     0.347131      168.366 
0.000218424     0.654599     -55.5816 
0.00235478     0.194165      145.491 
0.00268888     0.170294      130.236 
0.00160270     0.424382     -124.439 
0.00292351     0.439318      48.6914 
0.00110750     0.166433      122.735 
0.000585881     0.165529      115.017 
0.000471684     0.174642      103.241 
0.00224219     0.438292     -124.778 
0.00224399     0.181108      96.3402 
0.00233346     0.384708      171.027 
0.000381984     0.403113      172.875 
0.000135158     0.190000      90.0000 
0.000698709     0.452217     -125.096 
0.000482547     0.200250      87.1376 
0.000160122     0.281603     -106.504 
0.000103755     0.212132      81.8699 
0.00399415     0.176918      137.291 
2.53056e-05     0.366742      168.996 
0.00340422     0.169706      135.000 
0.00154420     0.404969     -122.905 
0.00182443     0.394588      171.254 
0.000300669     0.418808     -123.311 
7.32539e-05     0.284605     -108.435 
0.000270965     0.269258     -105.068 
0.000526840     0.254951     -101.310 
0.000441367     0.190263      93.0128 
0.000781060     0.275136     -109.093 
6.02690e-05     0.331210     -118.887 
0.000128300     0.245153     -101.768 
0.000174815     0.349857     -120.964 
0.00124641     0.243310     -99.4623 
0.000222596     0.230868     -94.9697 
0.000274098     0.368917     -122.829 
0.000311223     0.220000     -90.0000 
0.000448659     0.388330     -124.509 
0.000597380     0.210950     -84.5597 
4.67174e-05     0.394081     -125.707 
0.000477899     0.408044     -126.027 
0.000886884     0.203961     -78.6901 
0.00100044     0.414005     -127.147 
0.00136501     0.199249     -72.4744 
0.00127031     0.434166     -128.454 
0.000173181     0.196977     -66.0375 
0.00340205     0.186011      143.746 
0.000180418     0.284429      169.875 
7.91626e-05     0.311448      174.472 
0.000331394     0.321403      174.644 
0.000387083     0.330605      176.532 
0.00111753     0.448219     -128.660 
0.00115107     0.161555      111.801 
0.000374539     0.340588      176.634 
0.000536058     0.350143      178.363 
0.000722717     0.164924      104.036 
0.000912719     0.360139      178.409 
4.45737e-05     0.276586      167.471 
0.000430511     0.304138      170.538 
0.000245038     0.312570      172.648 
0.000277510     0.331361      174.806 
0.000660659     0.341321      174.958 
0.000836182     0.350571      176.730 
0.000250312     0.158114      108.435 
0.000441288     0.360555      176.820 
0.000248578     0.162788      100.620 
0.00115305      1.02591     -46.9749 
0.000698922      1.02650     -47.7639 
0.00233566      1.00265     -51.0725 
0.000290589      1.00424     -51.8748 
0.00612300     0.996393     -51.5198 
0.000660254     0.205913      150.945 
8.76788e-05     0.294279      170.218 
0.000466348     0.295466     -113.962 
0.00184590     0.408167     -59.0362 
3.49279e-05     0.257099     -103.496 
0.000101726     0.317648     -118.179 
0.000319754     0.360000     -180.000 
6.62303e-05     0.241868     -97.1250 
0.000155263     0.336155     -120.379 
3.18531e-05     0.230217     -92.4895 
6.09076e-05     0.230000     -90.0000 
0.00119359     0.370000     -180.000 
0.000140952     0.220907     -84.8056 
5.79871e-05     0.341321     -121.827 
0.000395946     0.360555     -123.690 
0.000175640     0.213776     -79.2157 
0.000970929      1.00170     -58.0552 
0.000155745     0.208806     -73.3008 
2.13424e-05     0.380132     -125.362 
0.000301260     0.386005     -126.573 
0.000281747     0.202485     -69.7751 
0.000386859      1.00125     -50.2677 
0.000755798     0.380000     -180.000 
0.00308846     0.202485      147.095 
0.000466015     0.322490     -119.745 
0.000112323     0.314006      170.838 
0.000143656     0.192094      141.340 
0.000105352     0.184391      139.399 
0.000499406     0.176918      132.709 
0.000172939     0.346699     -123.232 
0.000101058     0.366197     -124.992 
0.000121716     0.172046      125.538 
0.000176720     0.372021     -126.254 
0.000110308     0.994887     -50.7106 
0.000200060     0.392046     -127.747 
0.00816713     0.517880      10.0080 
0.00372235     0.516236      8.91493 
0.000320555     0.527731      9.81930 
0.00124290     0.526118      8.74616 
0.000592786     0.600083     0.954841 
0.000369186     0.508035      10.2040 
0.000794132     0.610082     0.939191 
0.000253356     0.509902      11.3099 
0.000540390     0.500100      11.5346 
0.00146961     0.620081     0.924045 
0.000529210     0.490306      11.7683 
0.000332886     0.480521      12.0115 
0.000414082     0.360139      1.59114 
8.88309e-05     0.492443      12.9074 
5.17208e-05     0.504480      13.7608 
0.00260629     0.210950      148.570 
5.09558e-05     0.453431      48.5763 
0.00250139     0.460109      47.6425 
0.000109087     0.200000      143.130 
0.000457096     0.183848      135.000 
0.000604226     0.178045      128.157 
0.000783814     0.278568     -111.038 
0.000537279     0.370135      178.452 
0.00887020     0.866487     -18.8532 
-0.00293535      3.96057      79.9669 
0.000186123      2.28650     -51.9272 
0.00332322      2.29268     -51.7305 
0.00182527      3.43796     -43.3500 
-0.000177143      3.94899      80.0845 
-0.00248946      4.01214      25.5432 
-0.000596573      2.18289      16.7747 
-0.00168417      2.08435     -17.3048 
0.00137926     0.968297      128.290 
0.000253524      1.67451      7.54942 
0.00157410      4.83617     -23.6497 
0.000325065      1.68443      7.50473 
-0.00150043      2.17332      16.8508 
0.00150673      3.55764      38.6095 
-0.00147017      4.97752      26.3591 
0.00134004      2.53411     -119.296 
0.00245327      2.94450     -75.4446 
0.000608374      1.68315      7.16724 
0.000892284      2.53902     -119.493 
0.00162669      2.46595      173.480 
-0.000297951      4.18320      173.962 
7.54275e-05      4.73179     -91.5743 
0.000945902      4.74207     -91.6918 
0.000215217      3.93707      155.062 
0.000537748      4.84481      107.911 
0.000554003      3.78863      123.480 
-0.000356536      5.81344     -20.6483 
0.000936984      3.44484     -43.4709 
0.000947812      5.04829     -10.7312 
0.000681658      1.69307      7.12502 
-0.000805085      4.17433      173.811 
-0.000590582      2.75073     -62.5034 
-0.000343597      1.90032     -40.7321 
0.00152367      4.42872      166.152 
0.000205035      1.73142      92.3171 
0.00125016      4.70346     -43.7078 
-0.000627582      5.57230      33.0627 
-0.000508385      1.92211     -124.186 
-6.81927e-05      4.45660     -97.3483 
-0.000329025      5.81697     -20.7405 
-0.000559268      4.45789     -97.4757 
-0.000820136      3.94160      104.847 
-0.000498721     0.633246      164.427 
-0.000830041      2.98412     -121.293 
0.000439779      5.68705      122.433 
0.000130671      3.54983      38.7102 
6.59070e-05      1.72290      93.3274 
0.000130642      4.82701     -23.6973 
0.00104984      4.93089      130.311 
-0.000599345      1.89275     -40.9296 
0.000107975      3.93224      154.869 
0.000128153      1.71493      94.3475 
-0.000250739      1.39004     0.412193 
0.000928627      4.82300     -23.5886 
0.00109674     0.974525      128.752 
0.000478704      3.78312      123.354 
-6.35405e-05     0.768440     -55.0691 
0.000428488      1.70300      7.08329 
-0.000910650      3.07826     -20.1421 
-0.000937379      6.41511     -29.9221 
-6.29224e-05      5.58252     -17.2989 
-0.00103521      3.95884      80.1094 
0.000185926      1.71572      94.6804 
0.00124255      5.53802      143.296 
-0.000355492      5.82633     -20.7057 
-0.000411232     0.762758     -55.6849 
-0.000620426      5.59504     -17.3662 
-0.000784805      3.78382      177.425 
-0.000412976      4.16438      173.797 
0.000179793      2.22794      43.7270 
0.00106499      5.03846     -10.7524 
-0.000660311      4.47028     -89.3591 
-0.000516454      2.37192     -65.5960 
0.000817084      3.45172     -43.5914 
0.000178735      1.71657      95.0131 
-0.000550050      1.38014     0.830315 
0.00116852      4.95649     -62.0907 
-0.000172731      6.48608      30.9941 
-0.000693637      4.97309      26.2559 
0.000173869      5.02508      30.4945 
0.000228668      5.67861      122.487 
5.81107e-05      1.71747      95.3454 
0.000282294      1.71292      7.04204 
-5.80681e-05      1.39014     0.824343 
-0.000449954      2.17624      17.1027 
-0.000384912     0.690652      34.3803 
-0.000712617      5.90018      24.0019 
-0.000775407      1.91651     -123.939 
0.000490138      4.13319      10.0321 
-0.000658377      1.54315      112.077 
0.000171114      1.70848      95.7106 
-0.000261593      5.63773      118.383 
0.000653597      2.52923     -119.099 
0.00123196      2.65092      88.4869 
-5.67127e-05     0.626418      163.301 
0.000112256      4.00656     -29.1241 
-0.000801639      2.08734     -17.5669 
0.000433518      6.41249     -49.5538 
-0.000165269      4.04684     -12.5595 
0.000261595      2.22104      43.5406 
-0.00354642      6.41012     -29.8447 
0.000260637      3.67143      81.3844 
0.000373715      5.03370      30.4367 
0.000268217      4.14132      9.87173 
0.000486417      1.70950      96.0441 
-0.000220043      4.15337      173.919 
0.000159868      4.85433      107.875 
-0.00103899     0.623618      164.181 
0.000464164      5.68169      122.347 
0.000262102      3.77763      123.227 
-5.49001e-05     0.757166     -56.3099 
-0.000156793      5.83568     -20.6710 
0.000108503      3.30248     -61.4172 
-0.000578211      1.69806      52.6577 
0.000664693      4.83216     -23.5411 
-0.000359088      5.57776      33.1488 
-0.000207148      4.44798     -97.4925 
0.000413339      3.99782     -29.1938 
0.000192738      1.72285      7.00127 
0.000161012      6.62069      43.5312 
-0.000537713     0.616847      163.034 
-0.000900190      6.49123      31.0697 
-0.000107165     0.754520     -55.2568 
0.00114191      3.66995      81.5387 
-0.000362968      4.14343      173.904 
-5.35519e-05      2.75536     -62.3189 
-0.000636509      2.36780     -65.8164 
0.000154413      4.41172     -104.036 
0.000493094      1.73159      6.63251 
-0.000586048      2.18580      17.0256 
-0.000254345      4.03491     -12.4518 
5.27549e-05      6.61345      43.5909 
0.000155153      3.30651     -61.6523 
-0.000985433      4.07506      4.92711 
0.000104033     0.796492     -151.504 
8.98089e-05      4.12689      10.3297 
-0.000301322     0.748866     -55.8855 
0.000256670      6.60621      43.6507 
-0.000153779      1.54693      112.420 
-0.00105707      5.90931      23.9625 
-0.000279805      2.97894     -121.129 
0.000349582      1.71058      96.3772 
0.000622446      4.48693     -165.809 
5.14100e-05      3.80185     -4.52585 
-5.14212e-05      1.88521     -41.1287 
9.94356e-05      2.30673     -51.6893 
0.000833661      6.40600     -49.6218 
5.11783e-05      2.46710      173.249 
0.000151386      5.31812     -135.914 
0.000484372      2.51080     -118.811 
0.000747838      3.81182     -4.51399 
-9.91665e-05      2.76422     -62.4152 
0.000569800      4.42634      166.278 
-0.000148914     0.682422      34.8545 
0.000481196     0.787718     -151.157 
0.000379081      4.42604     -142.897 
0.000242116      1.79279      3.19756 
5.03794e-05      3.69500     -119.687 
-0.00168612      4.27739     -169.084 
0.000515911      1.73994     -154.466 
9.97365e-05      4.21769      154.286 
-0.000334802      5.60758     -17.4333 
-0.000953215      1.53769      112.563 
5.02355e-05      2.36681     -163.556 
0.000196425      3.30177     -61.8050 
0.000986806      4.13495      10.1685 
-0.000238156      3.38126      162.798 
-0.000569798      1.70602      52.8614 
0.000340635      6.59898      43.7106 
0.000146233      1.74040      6.26748 
4.96933e-05      2.45601      173.454 
-0.000386246      4.13349      173.889 
0.00105456      3.69005     -119.552 
-0.000305141      1.38033      1.24536 
0.000189889      5.04232      30.3791 
0.000640609      5.32508     -135.837 
0.000415241      2.57099      13.4957 
0.000189378      4.93737      130.400 
0.000232944      2.35440     -163.720 
0.000526649      4.40202     -104.068 
0.000406598      4.12495     -155.050 
0.000190844      3.89487      168.748 
0.000401521      4.99235      44.5131 
0.000142868      4.20868      154.226 
-4.84931e-05      1.13004     -143.637 
-0.000190395     0.586003      64.7468 
-0.000572486      4.44929     -97.6202 
-0.00144126      6.91563      44.6485 
-4.82801e-05      3.95127      104.810 
0.000233830      3.98910     -29.2639 
0.000234972      1.72052      96.3402 
0.000272012      2.45717      173.222 
-0.000916817      3.73202      162.536 
-0.000188231      1.12201     -143.334 
0.00196189      2.94201     -75.6331 
-0.000228126      4.03277     -12.3131 
-0.000400543      6.60371      33.7623 
0.000408464      3.30589     -62.0397 
0.000183215      4.38015      140.094 
-9.39135e-05      5.58613      33.0927 
0.000134585      3.77216      123.100 
-9.33824e-05     0.743303     -56.5237 
-0.000497034      4.47040     -89.2310 
0.000585956      6.64209      43.4749 
0.000307464      3.74641     -77.6703 
4.70523e-05      4.86692      107.951 
-0.00161406      3.95713      80.2520 
0.000599230      6.64935      43.4156 
-9.27094e-05      2.49018     -90.6903 
-4.67702e-05      5.07829      136.277 
-0.000289635      3.94872      104.670 
0.000404812      4.38782      140.178 
0.00123619      1.50586     -120.311 
0.000359629      3.90274      168.920 
0.000316351      4.80983     -23.5271 
-0.000177469      3.92390     -157.683 
9.06461e-05      3.45897     -43.4772 
0.000398074      3.35436     -166.378 
-0.000271195      4.12249      174.013 
0.000474642      5.67635      122.262 
-0.000175918      5.64653      118.335 
-0.000133924      4.96412      26.3070 
-4.60015e-05     0.581808      65.6375 
0.000462934      2.30054     -51.8847 
-0.000176272      5.08552      136.354 
-0.000180913      1.11400     -143.027 
-0.000259971     0.734983     -56.0937 
-0.000221619      5.58323      33.2347 
9.06315e-05      4.22204      154.163 
-0.00112004      4.07421      4.78700 
0.000433452      1.72166      96.6710 
0.000126267      4.75237     -91.8087 
0.000344648      3.42196      109.282 
-0.000306843      5.10831      126.242 
0.000255913     0.980816      129.207 
-0.000487850     0.572713      65.2249 
0.000427367     0.774145     -151.449 
-0.000469010      2.37693     -43.2953 
-0.000132085      2.49032     -90.9203 
8.86566e-05      2.51563     -119.010 
0.00176073      4.49662     -165.840 
0.000415271      1.78281      3.21548 
0.000475409      6.65661      43.3565 
0.000899384      4.92976      130.475 
0.000131659      5.05095      30.3218 
-8.70371e-05     0.676757      34.1597 
0.000128934      2.97059      140.738 
-0.000549285      1.71400      53.0632 
0.000917041      3.42527      109.440 
-0.000334360      1.60953     -81.0644 
0.000449618      3.98038     -29.3342 
-4.42769e-05      3.96548     -41.9335 
-0.000217495      1.10603     -142.716 
-0.000292497      3.08172     -20.3167 
0.000516427      4.21304      154.104 
-0.000624584      4.11254      173.998 
0.000249127      4.43606      166.308 
-0.000299416      3.97292     -41.8371 
0.000127509      4.95602     -62.3491 
-0.000395731      5.04457     -26.6158 
-0.000288955      2.09038     -17.8282 
0.000781537      2.56127      13.5479 
0.000290801      1.74897     -154.607 
0.000128979      4.80067     -23.5747 
-0.000646314      5.71767     -38.2529 
0.000363960      4.80094      19.3407 
-0.000419992      5.05351     -26.5651 
0.00102686      3.58156      167.749 
0.000374704      3.92047      169.120 
-0.00152114      2.36373     -66.0375 
0.000724548      4.78750     -23.5129 
0.000359045      4.10864      11.2279 
-0.000288764      4.02087     -12.2042 
0.000251996      5.15644     -34.4914 
-4.27940e-05      5.70362     -38.2362 
8.43076e-05      6.66389      43.2974 
0.000291461      4.37374      140.194 
0.000283218      2.44724      173.194 
4.25519e-05      1.74428     -154.169 
-0.000126138      1.09809     -142.400 
0.000240149      3.34229     -166.504 
-0.000208234      3.68961     -163.628 
0.000992992      6.42721     -32.6763 
0.000280375      3.31006     -62.2737 
0.000238428      4.43402     -142.975 
-4.22023e-05      2.49050     -91.1504 
-8.26718e-05      4.95961      26.4617 
8.19862e-05      3.46586     -43.5971 
4.20951e-05      6.05578      34.8448 
0.000313234      1.75328     -154.312 
-0.000876129      5.11638      126.176 
0.00167530      3.35201     -166.544 
4.18899e-05      6.17531     -41.8493 
-0.000124059      5.10366     -104.989 
-8.25942e-05      2.50098     -91.6039 
-0.000238236      2.74925     -171.634 
0.000122152      3.13536      42.5441 
-0.000966556      2.17920      17.3540 
-0.000435331      3.97373     -41.6335 
-4.12210e-05      5.59160      33.1785 
7.72161e-05      3.92319      154.807 
0.000159185      5.33226     -135.912 
-0.000122122      1.09018     -142.079 
0.000432251      2.02714      141.208 
0.000159009      3.06894     -154.938 
0.000236797      6.39953     -49.6900 
-0.000859800      1.54156      112.906 
-4.06330e-05      5.09276      136.432 
-0.000583498      5.09141     -104.910 
0.000117818      5.05958      30.2646 
-0.000228139      5.59708      33.2642 
0.000275216      5.16469     -34.4285 
-4.05062e-05      3.68680     -163.777 
0.000310813      1.72285      97.0013 
0.000427902      4.36606      140.110 
-0.000348203      3.67720     -163.734 
-4.01777e-05      2.50128     -91.8328 
0.00104239      5.83675      133.126 
0.000117147      3.76671      122.973 
-0.000380813      3.07059      18.6120 
0.000497290      3.92842      169.291 
7.88957e-05      4.11588     -154.992 
-0.000114612     0.729452     -56.7456 
-0.000602485      3.72249      162.490 
0.000419245      4.98535      44.4311 
-3.97683e-05      1.08231     -141.754 
7.78900e-05      6.04758      34.8989 
-0.000117703      2.53570     -93.8441 
-0.000408581      2.36966     -43.4611 
-3.95888e-05      6.59540      33.8105 
0.000228498      5.67101      122.177 
-0.000298939      2.56096      35.3036 
0.000398077      3.12800      42.6680 
-7.84750e-05      1.07448     -141.423 
0.000339109     0.760592     -151.750 
0.000116013      4.73038      143.857 
-0.000673218      4.10260      173.984 
-0.000474625      1.70801      53.3314 
7.77046e-05      4.39960     -103.941 
0.000193343      3.42862      109.598 
-0.000471274      5.91338      24.0510 
-0.000150396      4.95066      26.5133 
-0.000705517      4.26758     -169.059 
-3.90257e-05      3.06888     -20.2064 
-3.89317e-05      1.91094     -123.690 
3.89155e-05      4.96025     -62.5051 
-7.66768e-05      4.48896     -15.7701 
0.000354618      2.29438     -52.0812 
-7.73334e-05      1.06668     -141.089 
-0.000374412      5.74465     -46.8340 
-0.000252731      2.97379     -120.964 
3.86328e-05      1.79226      2.87837 
-0.000366488      3.07234     -20.3814 
-0.000329812      4.01877     -12.0649 
3.84497e-05      3.73880     -77.4878 
7.64578e-05      6.25854     -50.5109 
-3.84267e-05      3.39081      162.848 
-0.000619427      3.12436      108.667 
-0.000221717      2.53639     -94.0695 
0.000149676      1.24740      48.9005 
-3.81469e-05      1.05891     -140.749 
-3.81260e-05     0.671193      33.4533 
-3.80981e-05      5.10001      136.510 
-0.000514812      2.08087     -17.9125 
3.80377e-05      2.22144      43.1759 
-0.000721325      4.08418      4.77529 
-3.79407e-05      1.05119     -140.404 
-3.79047e-05      1.81218     -42.3162 
3.78543e-05     0.973088      129.579 
0.000110043      3.05989     -154.859 
0.000223023      4.77834     -23.5607 
0.000111586      5.53001      143.234 
0.000218993      5.17035     -34.5199 
0.000288388      5.33945     -135.986 
0.000183151      1.78227      2.89451 
-7.50315e-05      1.04350     -140.054 
-0.000213631      1.60801     -81.4164 
0.000110512      5.06822      30.2076 
-0.000327324      3.97458     -41.4300 
-0.000376045      2.74084     -171.397 
0.000474517      4.38990     -103.973 
7.42107e-05      2.43731      173.167 
0.000182799      6.25218     -50.5816 
0.000110248      4.72449      143.955 
-0.000274992      1.47258      74.6425 
-0.000110798      5.03691     -84.0744 
3.71968e-05      4.42800     -143.078 
3.72084e-05      4.95564     -62.6076 
-7.40179e-05      1.03586     -139.699 
-0.000607193      5.04906     -26.7173 
-0.000355770      5.72552     -38.1910 
0.000144351     0.966747      129.123 
0.000303347      3.77510      122.890 
0.000182594      4.35839      140.026 
7.34955e-05      2.22194      42.8114 
7.34572e-05      2.59106     -8.88066 
0.000282393      4.16236      178.073 
-0.000109582      5.33401      126.999 
3.70139e-05      6.05330      34.9765 
0.00136430      6.41879     -32.7245 
3.69447e-05      5.66255      122.231 
0.000107907      3.31429     -62.5072 
0.000214870      1.73401      97.2890 
0.000145187      2.03342      140.988 
-0.000250382      4.50388      62.6384 
0.000281135      3.59134      167.783 
0.000177857      4.10670      11.0910 
0.000362207      4.43600     -143.156 
0.000243571      6.39307     -49.7584 
-0.000554329      4.33014      41.1610 
-0.000348931      3.66760     -163.690 
-3.66648e-05      3.68067     -23.7096 
-0.000597783      3.93905      104.707 
-7.26052e-05      1.75414     -43.6141 
-7.21331e-05      5.10727      136.587 
-7.30606e-05      1.02825     -139.338 
-0.000179116      2.05407      83.2902 
0.000655154      4.76518     -23.4986 
0.000889583      3.92658      169.434 
3.64578e-05      3.81262     -4.66380 
-0.000349310      3.67151     -23.7723 
-0.000214623      1.02069     -138.972 
0.000366010      1.23988      48.5967 
0.000107120      5.66569      122.091 
-0.000280934      5.03796     -83.9612 
-7.17855e-05     0.630635      165.303 
-0.000892088      5.73736     -46.7656 
-0.000310554      3.06741      18.4349 
0.000137004      3.82259     -4.65161 
7.04510e-05      6.04511      35.0308 
0.000105417      2.55760     -119.773 
-0.000502597      5.32800      126.913 
0.000308039      5.53205      143.379 
0.000209423      4.34431      140.042 
0.000311004     0.747061     -152.063 
0.000105224      2.57965     -8.69550 
0.000240331      2.22928      42.6368 
0.000172985      5.65723      122.145 
-3.55283e-05      4.47934     -15.8048 
0.000298382      1.51093     -120.639 
-0.000537970     0.640312      165.530 
-3.55079e-05      1.74691     -43.8403 
0.000207365      6.25991     -50.6398 
0.000261943      3.91414      154.744 
-0.000208416      4.09161      174.108 
0.000715950      1.76912      167.928 
-0.000723293      3.71598      162.296 
0.000104056      4.71641      143.883 
6.93675e-05      4.76269     -91.9252 
-6.89416e-05      3.40037      162.897 
0.000136521      5.06320      30.1098 
0.000237769      2.04120      141.165 
-0.000241549      1.01316     -138.601 
-0.000137443      2.53712     -94.2948 
-0.000102874      4.94171      26.5651 
0.000433870      5.17859     -34.4572 
0.000234300      4.20405      154.044 
-0.000202720      1.73971     -44.0684 
-0.000226731      3.83221     -130.131 
-0.00100457      4.26948     -168.927 
-0.000168225      5.60257      33.3497 
-0.000618576      6.90852      44.7068 
-0.000395352      4.49929      62.7515 
-0.000202928      4.71365      97.8035 
-0.000270153      3.98208     -41.3348 
-0.000578405      5.42795      145.812 
0.000299203      4.15204      178.206 
-0.000872641      4.09265      173.969 
-0.000353875      2.64917      65.4665 
0.000195650      1.79179      2.55900 
-0.000327230      4.01669     -11.9254 
-0.000518541      3.06297     -20.4466 
0.000324426      3.00847     -66.0762 
0.000286003      1.99482      62.5358 
-0.000257077      2.56912      35.1747 
-0.000199668      2.05526      83.0133 
0.000135125      5.20246      1.76239 
0.000264483      5.34664     -136.061 
3.41786e-05      4.35074      139.942 
-0.000519472      3.12757      108.840 
0.000133478      1.73531      97.6165 
0.000101633      3.41867      109.124 
-6.77131e-05      6.13209      43.7446 
9.99746e-05     0.960469      128.660 
0.000199169      3.09974     -14.5742 
0.000100958      2.56827     -8.50870 
-0.000327191      5.03902     -83.8482 
0.000162244      6.05086      35.1084 
0.000197223      3.90328     -177.651 
0.000259478      1.99945      62.2815 
-0.000353704      5.73338     -38.1292 
6.65254e-05      5.01881     -10.7950 
-0.000296041      1.00568     -138.225 
3.36553e-05      4.95537     -62.8661 
9.91269e-05      2.56258     -119.967 
0.000440514      5.52403      143.317 
0.000259169      5.66039      122.005 
0.000412248      4.34309      139.857 
3.34752e-05      4.49908     -165.717 
0.000255057      4.92215      130.551 
-6.57361e-05      3.78338      177.576 
-3.33673e-05     0.732462     -57.8288 
0.000162752      6.63483      43.5343 
-3.33360e-05      5.70657     -135.497 
9.85521e-05      4.71052      143.982 
-9.88513e-05      1.71012      53.8002 
6.51974e-05      2.65068      88.7030 
0.000504684      4.50877     -165.748 
-0.000409664      5.90425      24.0906 
0.000131611      3.41526      108.435 
-0.000192084      5.12445      126.110 
0.000221315      4.12113      30.7969 
-0.000254917      3.68470     -23.8520 
3.31072e-05      4.33665      139.958 
-6.54196e-05      5.71370     -135.567 
6.52718e-05      4.77340     -92.1611 
0.000130451      6.25358     -50.7106 
0.000256171     0.733553     -152.387 
0.000126520      4.25315      97.1584 
-0.000219413      2.96007     -120.897 
-0.000221923      6.12518      43.6770 
0.000160669      5.21246      1.75901 
-0.000347362      5.16991      146.679 
-6.54929e-05      2.53789     -94.5199 
-0.000160295      3.65800     -163.646 
6.52599e-05      2.56681     -8.28794 
0.000219200      6.38661     -49.8269 
9.71270e-05      2.20907      31.6755 
6.34317e-05      4.81037      19.3013 
9.48364e-05      4.95520     -63.1247 
0.000126491      2.22991      42.2737 
0.000157456      1.40602      127.196 
3.25159e-05      3.31857     -62.7400 
-9.43719e-05      1.60655     -81.7690 
-6.44672e-05      3.24427     -37.6117 
0.000125723      2.55155      13.6005 
-0.000128322      3.97549     -41.2266 
0.000250943      3.02319      63.6892 
-3.24035e-05      4.93726      26.7207 
0.000283684      4.77435     -23.4507 
-0.000219095      1.71820      53.9971 
-0.000156555      1.73254     -44.2985 
-3.21930e-05      4.33673      41.2605 
0.000188424      2.04749      140.947 
0.000187291      3.11194     -14.7061 
-0.000188168      3.05792      18.4942 
9.31553e-05      1.74657      97.8981 
-0.000126505      1.73807     -8.26996 
0.000186591      5.83723      132.987 
9.44158e-05      3.12066      42.7924 
-0.000124432      4.72356      97.7870 
0.000248885      2.55691     -8.32024 
0.000158211      3.41211      108.276 
-6.37326e-05      5.89173     -136.307 
9.42781e-05      5.07185      30.0531 
0.000156291      1.74522      97.5729 
9.36377e-05      2.56759     -120.160 
-0.000216654      4.34425      41.1735 
-0.000124423      6.13267      49.1656 
0.000371954      3.93459      169.604 
-0.000310378     0.998248     -137.842 
3.18865e-05      3.91327     -177.657 
3.18433e-05      3.04659     -154.949 
9.36152e-05      5.00899     -10.8164 
-0.000154639      4.92833      26.7730 
6.31454e-05      6.59175      43.7707 
-9.32992e-05      1.47526      74.2680 
-9.33150e-05      2.53870     -94.7449 
0.000155110      5.35385     -136.135 
-0.000124080      2.06519      83.0470 
-0.000246117      5.48835     -12.4156 
-0.000186828     0.647611      166.608 
-0.000123416      3.23636     -37.7197 
0.000184946      2.21759      31.5398 
9.27949e-05      2.28825     -52.2787 
-0.000215306      3.98301     -41.1318 
9.29152e-05      4.16203      178.210 
6.25664e-05      4.78418     -92.3959 
9.22996e-05      4.70244      143.910 
3.14788e-05      3.02576     -65.8068 
0.000154092      4.19068      154.108 
-0.000215323      5.04010     -83.7351 
6.27350e-05      6.24725     -50.7816 
-0.000215244      4.28841      16.1106 
0.000123339      4.12511      10.1930 
0.000276375      5.18684     -34.3947 
3.14047e-05     0.954254      128.191 
0.000153842      3.91369     -177.510 
-0.000214925      5.91310     -136.370 
-0.000214990      5.35023     -37.4054 
-0.000122837      3.93174     -25.4571 
-0.000183960      5.32200      126.827 
9.22907e-05      5.42137     -20.7416 
-0.000122524      4.07983      146.193 
-9.18385e-05      3.65520     -163.796 
9.24422e-05      3.40899      108.116 
-3.10017e-05      2.16965      17.4328 
0.000122566      6.55598      43.9494 
6.12175e-05      6.04268      35.1629 
-9.18852e-05      5.64562     -130.546 
9.13640e-05      5.20216      1.65230 
3.08239e-05      3.74098     -77.3383 
-6.13807e-05      2.18220      17.6046 
3.07817e-05      4.13146      9.89551 
9.13817e-05      5.65510      121.919 
3.07872e-05      3.05635     -65.4474 
-3.07428e-05      2.53955     -94.9697 
-9.13089e-05      4.48582      62.8066 
6.10158e-05      4.79505     -92.6297 
3.05940e-05     0.724707     -152.021 
-6.07340e-05      2.63008     0.435701 
-6.08815e-05      3.11811      108.900 
-3.05645e-05     0.657343      166.809 
-3.05492e-05      3.40485     -155.166 
9.07317e-05      4.78352     -23.4030 
6.06155e-05      1.51605     -120.964 
-3.04775e-05      1.72818     -8.31765 
-6.05973e-05      4.08336      4.63546 
-6.05479e-05      4.00485     -11.8150 
3.03980e-05      6.24093     -50.8527 
-9.04591e-05     0.650000      165.750 
3.03708e-05      3.40589      107.956 
-6.04000e-05      3.05477      18.3163 
3.03388e-05      5.08051      29.9967 
6.03594e-05      3.76968      122.763 
3.02750e-05     0.720069     -152.723 
-6.03791e-05      2.17267      17.6844 
3.02345e-05      3.10942     -14.5278 
3.01712e-05      6.42181     -32.6012 
-3.01645e-05      5.11856      126.019 
-3.01751e-05      3.45453      31.9878 
3.01728e-05      4.33545      139.771 
-3.01480e-05      5.05356     -26.8186 
-3.00821e-05      6.40145     -29.8892 
3.00729e-05      1.41209      127.519 
-3.00304e-05      1.72047      54.4623 
-3.00302e-05      3.64560     -163.752 
-3.00464e-05      2.57730      35.0467 
