! Center RA: 11 30 07.05260,  Dec: -14 49 27.38821 (2000.0)
! Established model.
! Flux (Jy) Radius (mas)  Theta (deg)  Major (mas)  Axial ratio   Phi (deg) T \
! Freq (Hz)     SpecIndex
  0.157724    0.0199999      90.0000 
  0.142994    0.0400000      0.00000 
 0.0499457     0.172047      144.462 
 0.0157384    0.0200000      0.00000 
0.00250352      0.00000      0.00000 
 0.0224860     0.152315     -156.801 
 0.0643960     0.260000      112.620 
0.00543490     0.286356      114.775 
0.00604098     0.278568      111.038 
 0.0102527     0.284253      140.711 
 0.0107187     0.440454      129.472 
0.00252762     0.300000      143.130 
0.00521028     0.247386      104.036 
0.00143102     0.266833      102.995 
 0.0109120     0.263059      98.7462 
0.00793509     0.316228      145.305 
0.000721544     0.332866      147.265 
0.00363399     0.349285      76.7595 
 0.0658241     0.200998     -5.71058 
0.00211295     0.120000      0.00000 
0.00521242     0.100000      0.00000 
0.00270644    0.0800000      0.00000 
0.00117339    0.0447213      153.435 
0.00207797     0.126491      161.565 
0.00346308     0.152315      156.801 
0.00321775     0.145602      164.055 
0.00792578     0.588558      80.2176 
0.00884524     0.500400      92.2906 
 0.0121878     0.608276      80.5377 
0.00190020     0.501597      94.5739 
 0.0585963     0.481664      94.7636 
 0.0268326     0.628013      80.8377 
 0.0221443     0.647765      81.1193 
 0.0108403     0.667533      81.3844 
 0.0301955     0.859069      77.9052 
 0.0158634      1.07424      114.179 
0.00835757      1.12872      97.1250 
0.00133090     0.882950      76.9081 
0.00927246     0.907083      75.9638 
0.00531051      1.13137      98.1301 
0.00280761     0.721110      86.8202 
 0.0134373     0.926499      76.2637 
0.00568498     0.722496      85.2364 
0.00465201      1.13437      99.1302 
 0.0185897     0.724431      83.6598 
0.00318741     0.887694      75.6507 
0.00121244      1.13772      100.125 
0.00299991      1.10073      114.702 
0.00176162      1.15741      99.9506 
0.00495714     0.726911      82.0928 
 0.0190987      3.33473      98.2759 
0.00725205      3.30678      97.2969 
 0.0110686      3.28152      91.7463 
 0.0111301      3.33766      98.6156 
0.00496143      3.31210      97.9833 
0.00154626      3.34072      98.9548 
0.00707616      3.31494      98.3256 
0.00592297      3.30151      91.7357 
0.00238230     0.664831      74.2914 
 0.0143116     0.440000      90.0000 
0.00584414     0.266833      102.995 
 0.0245780     0.659697      75.9638 
0.00683921     0.215407     -158.199 
 0.0111245     0.460000      90.0000 
 0.0123781     0.824621      75.9638 
0.00401675     0.674685      78.0239 
0.00457822     0.848999      74.9816 
0.00341895     0.655134      77.6609 
0.00163540     0.460435      87.5104 
0.000524170     0.196977     -156.038 
 0.0114008      2.78460      93.2940 
0.00223926      2.65481      96.0542 
0.00520318      3.28000      90.0000 
0.00273642      2.78352      92.8830 
0.00483737      2.63287      95.6673 
0.00613835      3.28006      90.3494 
0.000508998      2.61105      95.2739 
0.00264039      2.60929      94.8366 
0.00999788      2.76463      93.3178 
0.00642509      3.29557      95.5722 
0.00244406      2.58627      93.9909 
0.000449655      2.56500      93.5763 
0.00410924      2.56383      93.1302 
0.000871245      3.30006      89.6528 
 0.0195092      1.82362      111.218 
-0.0126829      1.52971      101.310 
0.00790600     0.640313      75.5297 
0.00299818      1.80499      111.448 
0.00101572      2.31465      102.475 
0.000595108      1.81240      112.036 
0.00124777      2.31041      101.991 
-0.00136637     0.340588      130.236 
0.000276976      2.23973      100.808 
-0.00285409     0.356090      128.157 
0.00162551      2.33418      102.369 
0.00175431      2.21639      100.397 
0.00391174     0.620967      75.0686 
0.000371854      2.10523      104.300 
0.00200085      1.58455      94.3432 
0.00128917      2.08586      104.436 
0.00211576      2.09093      104.967 
0.000824897      1.68048      91.3639 
0.000813860      1.56461      94.3987 
 0.0212671      2.03666      107.723 
-0.00250326      1.71732      104.845 
0.00720460      2.14560      101.834 
-0.00159644      1.72256      105.489 
-0.00972607      1.74723      105.945 
 0.0110777      2.12603      101.944 
0.00242579      2.01762      107.896 
-0.00535612      2.18083      91.5765 
0.00306701     0.345254      79.9920 
-0.00323305     0.602993      95.7106 
-0.00366064      2.20327      93.1221 
-0.00474671     0.622897      95.5275 
0.00254914      2.13026      102.470 
-9.26914e-05      2.18147      92.1017 
-0.000248555      2.14009      89.4645 
-0.00202057      2.14000      90.0000 
-0.00235589      2.22576      94.1223 
-0.00127674      1.74184      105.313 
0.00145876     0.806226      82.8750 
-0.00145919      1.75602      104.511 
0.000640948     0.808950      81.4692 
-0.00135629      2.22729      94.6355 
-0.000948576      2.14009      90.5355 
0.00518770     0.828734      81.6744 
-0.000210509     0.642806      95.3558 
 0.0236730      2.41197      95.7106 
0.00557155      1.23968      100.222 
0.00998614      2.41404      96.1829 
0.00439973      2.74029      90.8364 
0.00180473      1.14280      85.9858 
0.00429888      1.82099      88.1118 
0.00344525      1.26301      100.954 
0.00175067      2.74066      91.2545 
0.00807105      1.06320      106.390 
0.00163698      2.43187      95.6637 
-0.00665919      2.28876      95.0131 
0.00283731      1.14438      84.9869 
0.00233234      1.80100      88.0908 
0.000514383      1.38924      83.3865 
-0.00227904      2.82113      88.3750 
0.00139014      1.82044      88.7410 
-0.00116541      2.28709      94.5140 
0.000926941      1.14630      83.9910 
0.000346790      1.25937      100.061 
0.000297006      2.74007      90.4182 
-0.000194761      1.02000      90.0000 
0.00109945      1.36938      83.2902 
0.000959845      1.16069      91.9749 
0.000937023      2.76007      90.4152 
0.00106036      1.16017      90.9878 
-6.88778e-05      2.52071      91.3639 
-0.00450575      2.54849      98.5752 
0.000194884      1.25603      99.1623 
0.00477144      1.14070      87.9904 
0.00130074      1.80044      88.7270 
0.00176745      2.76000      90.0000 
0.000421804      1.27577      99.0193 
0.000280206      1.29553      98.8807 
0.00450157      2.41006      95.2375 
0.000316406      1.31529      98.7462 
-0.00116202      2.29059      95.5115 
0.000313039      1.82000      90.0000 
5.31599e-05      1.80011      89.3634 
0.00155979      1.33507      98.6156 
0.00183771      1.82011      90.6296 
0.000459322      2.74007      89.5818 
0.00155762      2.74029      89.1636 
0.00115507      1.82044      91.2590 
-0.00132391      2.52872      98.6428 
-0.00100208      2.81027      94.8991 
-0.00112179      1.46874      83.7460 
0.000187836      2.42825      94.7245 
0.00964515      3.60938      94.1309 
 0.0123814      4.30019      89.4670 
0.00102079      3.62795      93.7931 
0.00145711      2.07692      105.642 
0.00358322      2.43393      96.1322 
0.00417472      3.62668      93.4778 
0.00262776      2.06891      106.858 
0.000958144      2.06184      108.083 
-0.00788866      1.70000      98.7974 
0.00204614      2.05572      107.554 
-0.00985076      3.50143      91.6366 
0.00133055      2.04284      108.258 
0.000985992      1.76284      86.7481 
0.00288202      2.80029      90.8185 
0.00198542      4.30005      89.7335 
0.00446242      1.74287      86.7108 
0.000149025      2.45177      95.6176 
0.00399249      2.11073      102.588 
0.00307868      3.60799      93.8141 
0.00149540      3.59255      94.7901 
0.00263878      2.02386      108.435 
0.00243153      3.54497      96.8043 
-0.00114450      2.28316      93.0128 
-0.000864309      1.91050      96.0090 
0.000701490      2.82064      91.2189 
0.000377585      4.28000      90.0000 
-0.000311989      3.70389      96.5110 
0.00406365      1.00499      121.159 
0.00411325     0.228035      105.255 
0.00136587      2.44663      94.2191 
0.000772845      2.10038      103.772 
7.68260e-05      2.07480      107.387 
0.00139043      2.06814      108.610 
0.000443346      1.01213      119.604 
0.000767355      2.10647      102.057 
0.00156937      1.02215      120.579 
0.000139906      2.44524      93.7517 
0.000266835      1.23045      97.4716 
0.00115284      1.22801      96.5463 
0.00258425      2.11811      100.886 
0.000380120     0.841190      118.393 
0.000126983      2.07461      109.134 
0.00534278      2.05572      109.316 
0.00400801     0.215407      111.801 
0.000184392     0.850882      119.578 
0.00502839     0.833547      120.256 
0.00368426      1.02000      118.072 
0.00111090      1.25028      97.3524 
0.00255628      2.12198      101.416 
0.000389541      1.26775      96.3402 
-0.00212132      2.29260      96.0090 
0.000550124      1.28763      96.2419 
0.000883567      1.30752      96.1466 
7.10722e-05      2.04920      108.789 
0.000106540      2.03027      108.970 
0.000269993      1.16842      96.8817 
0.000567797     0.816333      120.964 
9.55758e-05      1.14856      97.0013 
-0.000377652     0.670522      107.354 
9.36105e-05      1.01074      117.072 
0.00478142      2.44205      92.3469 
0.00576908     0.466905      133.264 
0.000465300      2.62427      100.539 
0.00288040      2.64038      100.033 
0.00116403     0.300000      126.870 
0.000526866      2.44295      92.8156 
0.00169823      2.42297      92.8388 
0.00150803     0.284253      129.289 
0.000486102     0.495177      133.363 
0.00494482      2.65669      99.5332 
0.00346434     0.481664      131.634 
0.00125895      2.42405      93.3109 
0.00355522     0.269073      131.987 
-0.00511596     0.164924      75.9638 
-0.00223149      2.75536      103.431 
0.000365181      2.42528      93.7826 
0.00241310     0.254558      135.000 
-0.00128940     0.555698      149.744 
0.000273190      2.67642      99.4623 
-0.00157379      2.73591      103.528 
0.000207857      2.42669      94.2538 
-5.78527e-05      2.71647      103.627 
0.00893772      3.96081      88.8427 
0.000366680      3.94020      89.4183 
0.00497315     0.495177      136.637 
0.00508899      3.60355      92.5448 
0.00256203      2.42132      91.8934 
0.00238693     0.466905      136.736 
0.00112120      2.66008      99.9581 
0.00127241      2.40033      90.9548 
0.00107276      2.67978      99.8841 
0.000374708      2.40075      91.4321 
0.00123857      2.53811      102.284 
-0.00746215      4.02244      91.9946 
0.00145000      2.69615      99.3924 
0.000523321     0.425206      138.814 
0.00106777      3.60450      92.8624 
0.00139464      2.53393      101.842 
0.00344258      3.96045      89.1319 
0.00188843     0.410366      136.975 
-0.00337641      2.58070      91.3322 
4.68752e-05      2.44107      97.5326 
0.00296093      2.71588      99.3236 
0.00121055      2.52990      101.399 
0.00107777      3.98126      88.5607 
0.000933382      3.60555      93.1798 
0.000419074      2.52602      100.954 
-0.000494756      3.52000      90.0000 
0.000226960      3.60672      93.4971 
0.00271836     0.444072      125.838 
0.00465771     0.428019      127.405 
0.00457718      2.68991      98.5518 
0.00327870      3.62199      91.8986 
0.00610676      2.70681      98.0702 
0.00158725      2.46089      97.4716 
0.000369645     0.344093      125.538 
0.00350852      3.62138      91.5824 
0.00233032      2.67320      99.0395 
-0.00647784      2.58031      90.8882 
0.00488306      2.51205      99.1623 
0.00147728      3.90251      92.0559 
0.000890926      3.88253      92.0665 
0.000299761      3.66000      90.0000 
-0.00188511      2.65819      103.932 
0.000897297      2.65345      99.1073 
0.000142984      3.68000      90.0000 
7.06424e-05      2.70969      98.4889 
0.00869643      1.57290      101.739 
0.00512652     0.803990      84.2894 
0.00479397      1.98091      91.7357 
0.00179823     0.782304      85.6013 
0.000135476     0.700000      90.0000 
0.00150008     0.831865      80.3112 
0.000458499     0.680000      90.0000 
0.000559576     0.660000      90.0000 
0.00223979      2.00160      92.2906 
0.000867109     0.640312      88.2101 
0.00531491     0.641249      86.4237 
0.000294075      1.55332      101.889 
0.00432043      1.54932      101.165 
0.00375656      2.00250      92.8624 
0.000578038     0.622897      84.4725 
-0.00542990      1.70141      107.796 
0.00620461      2.02356      93.3997 
0.000436461     0.781025      87.0643 
0.000742602     0.625140      82.6476 
0.00304824      1.56895      101.023 
0.00245433      2.02485      93.9647 
-0.00154059      1.93494      97.1250 
0.00239998     0.784092      84.1440 
0.00636474      1.54557      100.437 
0.000119321     0.701142      86.7295 
0.000514532     0.680294      88.3153 
0.000947126     0.660303      88.2643 
0.000566324     0.855102      79.2157 
0.00308541     0.661211      86.5318 
0.00355888     0.851587      80.5377 
0.00109678      1.52591      100.574 
0.00118611      1.52237      99.8336 
0.00102146     0.826075      83.0470 
0.000207266      2.02633      94.5288 
0.00804876      1.48054      51.5819 
-0.00452800      3.10387      99.6444 
-0.00148977      3.08869      119.055 
-0.00305426      2.10152      2.18164 
-0.00216024      1.99459      63.1780 
-0.00236281      3.06150      118.909 
0.000980942      4.37049      75.9638 
-0.00251587      4.21089      124.747 
-0.000281231      3.44981      94.3223 
-0.00378694      3.44836      93.9909 
-0.000534640      1.60200     -177.138 
-0.000521090      2.83894      113.676 
0.000260013      4.06005      126.588 
-0.00233928      1.62197     -177.173 
-0.000253910      2.12151      2.16108 
0.00296046      4.37539      75.7097 
0.00103919      4.07200      126.814 
-0.000479787      2.83097      113.305 
-0.00213249      2.10238      2.72631 
-0.000898590      3.09115      100.437 
-0.000230381      2.00370      62.6676 
-0.00129744      2.39140      32.3609 
-0.00108280      4.19447      124.902 
0.000856294      3.48368      105.313 
-0.000329113      2.82312      112.932 
-0.000431768      1.60125      62.4748 
-0.000714547      2.12236      2.70063 
0.00246864      1.46820      52.1935 
0.00298246      2.75572      158.276 
-0.00137038      3.44703      93.6593 
0.00179134      1.53883      152.103 
-0.000706669      2.81539      112.557 
0.00451954      2.54943      70.2857 
0.000390486      4.08402      127.038 
-0.00199937      3.98964      129.916 
0.000484919      3.30248      118.583 
-0.000382486      3.09483      100.802 
-0.000194351      2.07538      27.5528 
-0.000379792      1.64195     -177.207 
-0.00129866      2.37453      32.6192 
0.000639714      3.48901      105.630 
-0.00182666      2.80777      112.180 
0.00110523      3.28420      57.1809 
-0.00152136      2.02040      148.355 
-0.00126023     0.593633     -122.619 
0.000637913      1.47959     -9.33500 
0.00110858      3.31210      118.887 
-0.00238884      4.97003      121.003 
-0.00193249      1.86815      105.524 
0.00186892      1.55653      152.447 
-0.00138042      3.08299      101.602 
0.000781334      1.92042      54.3236 
-0.000917319      1.64305     -176.511 
0.00467512      1.45986     -9.46232 
0.00713595      2.74838      158.663 
-0.000585691      2.24722      94.5943 
-0.000895075      1.61059      61.8438 
0.000560440     0.331059      115.017 
0.00121273      1.93215      53.8418 
0.00124635      1.52958      152.765 
0.000451548      3.49445      105.945 
-0.00206919      3.97432      130.101 
-0.00190620      3.08707      101.965 
-0.00119126      2.24571      94.0856 
-0.00102012      1.66301     -176.553 
0.000294545      1.45602      52.8153 
0.000152358      3.27835      56.6977 
0.000640945     0.323110      111.801 
-0.000560540      2.35771      32.8812 
-0.00136460      1.87361      106.113 
-0.00157988      2.03745      148.650 
-0.000361631     0.621289     -123.179 
-0.000142894     0.583095     -120.964 
0.000352122      3.27341      57.4751 
-0.000211089      1.88223      104.775 
0.00105242     0.928009      52.8831 
0.000269455      2.34307      39.8056 
-0.000391353      2.08240      2.75249 
0.000720561      1.94402      53.3659 
-0.000851901      2.24437      93.5763 
-0.000520887     0.660303     -125.134 
0.000705269      3.50000      106.260 
-6.80458e-05     0.555698     -120.256 
-0.000393291      3.46578      93.3082 
-0.000768592      1.68297     -176.594 
-6.69232e-05      1.88743      105.362 
-0.000387361     0.545894     -118.443 
0.000568185      3.26741      56.9908 
-0.000132029      3.10831      119.699 
0.000253243      3.84104      98.3832 
-6.52215e-05     0.804487      124.875 
-0.00108677      3.09128      102.328 
-0.000309774     0.809938      159.775 
-0.00136361      1.62012      61.2202 
-0.000797571     0.793221      123.690 
6.39616e-05      2.32775      40.1207 
-0.000126634      3.11827      120.018 
-0.00171807      3.46468      92.9780 
-0.000418794      4.46220      88.2021 
-0.000306660     0.688186     -125.538 
0.000478653      1.94833      54.1888 
-0.000972584      1.42056      35.2564 
-0.000184068     0.509902     -115.560 
0.000628345      1.47201      53.2858 
-0.00475824      2.59677      12.0023 
0.00165231      2.17697      20.4328 
0.000685976     0.916079      53.8807 
-0.00227127     0.700000     -126.870 
0.000233351      3.50565      106.574 
-5.96179e-05      1.68428     -175.914 
-0.000290912      2.24321      93.0665 
-0.00277178      3.16436      143.999 
0.00148546      4.73362      73.5558 
-0.00222565     0.828734      160.253 
0.000744364      3.85798      98.0461 
-0.000449322      2.05456      148.941 
-0.000608743      3.07610      102.771 
-0.000432744      2.24223      92.5562 
0.000644736      2.56944     -175.088 
0.000262302      4.39477      75.7740 
-0.000527775      2.00998      148.841 
5.38530e-05     0.928009     -37.1169 
-0.00132433      3.08058      103.134 
0.000663806      1.46014      53.9149 
-0.000411502      1.87926      106.699 
0.000560241      1.44014     -9.59313 
0.00104982      2.57123     -174.644 
-0.000607145      3.46370      92.6476 
-0.000354753      2.24143      92.0454 
-0.000598580      4.22734      55.4077 
5.12454e-05     0.904434      54.9042 
-5.05990e-05      2.02712      149.133 
-0.000545160     0.712180     -128.157 
5.05463e-05     0.300666      93.8141 
-0.000494323      1.74413      130.815 
9.89699e-05      1.93670      54.6687 
4.99348e-05     0.300000      90.0000 
0.000147634      4.72800      73.7883 
-4.96047e-05      1.62985      60.6039 
-0.000636936      2.60100      12.4332 
-9.78453e-05      2.24080      91.5343 
4.91831e-05      4.28075      88.9292 
-9.79500e-05      1.87211      108.048 
-4.91237e-05     0.809938      122.905 
4.88661e-05     0.305941      78.6901 
0.000146400      3.23289      38.2170 
9.75254e-05      2.69295      98.9726 
-4.86851e-05      1.41605      36.3844 
-4.86738e-05      1.87840      108.628 
