! Center RA: 11 59 31.83391,  Dec: +29 14 43.82678 (2000.0)
! Established model.
! Flux (Jy) Radius (mas)  Theta (deg)  Major (mas)  Axial ratio   Phi (deg) T \
! Freq (Hz)     SpecIndex
  0.350197      0.00000      0.00000 
  0.229189    0.0100000     -90.0000 
  0.114174   0.00999997      180.000 
 0.0121722    0.0141422     -44.9998 
0.00162566    0.0223606      153.435 
0.000813277    0.0282843     -45.0000 
0.000798395    0.0424264     -45.0000 
0.00997713    0.0360555      146.310 
 0.0105044    0.0500000     -36.8699 
 0.0114288    0.0447213      153.435 
 0.0363262    0.0583095     -30.9637 
 0.0342178    0.0538516      158.199 
0.00902957     0.420000      0.00000 
0.00687022     0.430116     -1.33222 
0.000275035     0.410122      1.39718 
0.00153764     0.450444     -2.54480 
0.00265520     0.400125      1.43210 
0.00158890     0.460977     -3.73140 
0.00159919     0.390128      1.46880 
0.00995929     0.470956     -3.65222 
0.00993851     0.380132      1.50744 
 0.0104334     0.276586      12.5288 
0.00349800     0.564624      22.9321 
0.00464967     0.650692     -2.64255 
0.000670189     0.560803      21.9911 
0.000557422     0.721249      16.9275 
0.00174609     0.730821      16.6992 
0.00208562     0.551543      22.3801 
0.00111472     0.740405      16.4769 
0.00544919     0.660681     -2.60256 
0.000225307     0.538517      21.8014 
0.00537187     0.266833      12.9946 
0.000216833     0.534883      20.8068 
0.00171378     0.752861      16.9908 
0.00307306     0.531413      19.7989 
0.000255351     0.555428      23.3340 
0.000564681     0.762430      16.7712 
0.00605228     0.765376      17.4880 
0.000735664     0.559464      24.2744 
0.000713368     0.522015      20.1707 
0.000146876     0.725328      15.1858 
0.000205902     0.713092      14.6209 
0.000135540     0.671193     -3.41659 
0.00856600     0.254951      11.3099 
0.00114649     0.651230     -3.52145 
0.000555138     0.755844      17.7158 
0.00378314     0.449444     -20.8545 
0.000169944     0.213776      10.7843 
0.00626517     0.215870      13.3925 
0.00440314     0.453100     -22.0362 
0.000667063     0.376431     -16.9908 
0.000478060     0.466155     -22.7144 
0.00241452      1.50030      1.14576 
0.00318968     0.197231      149.534 
0.00247380      1.02108      14.1723 
0.000335754      1.35359     -17.6318 
0.00249816      1.34406     -17.7609 
0.00139204     0.186815      15.5241 
0.00164343      1.24065      1.84761 
0.00281351      1.51030      1.13818 
0.00262582     0.463249      13.7363 
0.00685711     0.790759     -13.1575 
0.000737201     0.388973     -17.9691 
0.00146212     0.170880      20.5560 
0.00237328      1.23037      1.39718 
0.000711105     0.205913      150.945 
0.000989990      1.03078      14.0362 
0.00121208      1.03325      14.5742 
0.00183279      1.34715     -18.1660 
0.000760320     0.121655      99.4623 
5.45054e-05     0.192354      152.103 
0.00190190     0.111803      100.305 
0.000188257     0.329848     -14.0362 
0.000669134     0.201246      153.435 
0.000302990     0.214709      152.241 
6.85025e-05     0.414367     -19.7468 
0.00117100     0.472969      13.4486 
0.00250497      1.22037      1.40863 
0.000226093     0.180278      19.4400 
0.000356858     0.427200     -20.5560 
0.000999750     0.317805     -12.7244 
0.00170597      1.04293      14.4360 
0.000533046     0.223607      153.435 
0.000506337     0.165529      25.0169 
0.00126953      1.52030      1.13069 
0.000300676     0.440114     -21.3179 
0.000100763     0.210238      154.654 
0.000227198     0.219317      155.772 
0.000374021      1.05262      14.3003 
0.000319564      1.33765     -18.2995 
0.000199580     0.800500     -12.9946 
0.000607217     0.901388      17.4299 
0.000608677     0.158114      145.305 
0.00122821     0.161245      150.255 
0.00205518     0.177200      16.3895 
0.000210545     0.184391      12.5288 
0.00113652     0.170000      151.928 
0.000989854     0.210000      0.00000 
0.00191352      1.22066      1.87788 
0.000951940     0.178885      153.435 
0.000757606     0.187883      154.799 
0.000479991      1.52013     0.753848 
0.00111099     0.156525      26.5650 
2.77584e-05      1.33240     -16.1226 
0.000406111      1.34104     -17.3540 
0.000971038     0.196977      156.038 
0.000900040     0.470744      12.2648 
0.000144416      1.33454     -17.8919 
0.000202319     0.206155      157.166 
1.02278e-05     0.793095     -13.8610 
0.000124105     0.144222      146.310 
4.10496e-05     0.104403      106.699 
0.000500758     0.101980      101.310 
0.000443264     0.152643      148.392 
0.000958309     0.200000      0.00000 
0.00370060     0.167631      17.3540 
0.000547227     0.161555      21.8014 
7.89664e-05     0.781025     -13.3245 
0.000496566     0.100499      95.7106 
0.00270999     0.819390      23.7495 
0.000243750     0.148661      160.346 
0.00110585     0.100000      90.0000 
0.000765647     0.145602      164.055 
0.000936147     0.210950     -5.44033 
0.000434339     0.100499      84.2894 
0.000689270     0.143178      167.905 
0.000220767     0.102956      60.9454 
0.00194723     0.141421      171.870 
0.00131288     0.108167      56.3099 
0.00318026     0.222036     -7.76516 
0.000163169     0.182483      9.46232 
0.000752634      1.00180     -3.43363 
8.91282e-05      1.01193     -18.4349 
0.000754458      1.00881     -17.8961 
0.000157590     0.192354      8.97262 
0.000496942     0.991817     -3.46823 
3.20679e-05     0.815414      23.1063 
0.000269252     0.233452     -9.86581 
0.000315904     0.810247      24.0343 
6.64573e-05     0.166433      147.265 
3.54797e-05     0.243311     -9.46232 
0.000168931     0.200998     -5.71059 
0.00160652     0.212132     -8.13010 
3.14929e-05    0.0921954      77.4712 
0.000615285     0.151327      172.405 
0.000612418     0.150333      176.186 
0.000487786     0.120416      41.6335 
6.09858e-05     0.128063      38.6598 
0.00133139    0.0984886      66.0375 
0.000531314    0.0948683      71.5651 
0.000203415     0.161245      172.875 
0.00160586     0.171172      173.290 
0.000285079     0.181108      173.660 
0.00196517     0.231948     -7.43141 
8.03669e-06     0.170294      176.634 
0.00118826    0.0943398      57.9946 
0.000978532    0.0894427      63.4349 
0.000395418    0.0854400      69.4440 
0.000151198    0.0824621      75.9637 
0.000988850     0.130384      175.601 
6.89763e-05    0.0905539      83.6598 
0.000765017    0.0900000      90.0000 
0.000630362     0.140357      175.914 
0.00144684     0.106301      48.8141 
0.00138306     0.100000      53.1301 
0.00359286    0.0905538      173.660 
0.000490248     0.113137      45.0000 
0.000994308     0.100499      174.289 
0.000371293    0.0921954      167.471 
1.13301e-05     0.143178      155.225 
0.000264464    0.0948683      161.565 
4.32563e-05    0.0984886      156.038 
0.000801504     0.708308      13.0552 
0.00105673     0.706116      12.2648 
0.000836677    0.0632456      71.5650 
0.000207935    0.0608276      80.5376 
0.000108675    0.0761577      66.8014 
4.28422e-05    0.0600000      90.0000 
2.09366e-05    0.0608276      99.4623 
0.00104331    0.0640312      128.660 
9.88833e-05    0.0806226      60.2551 
0.00122537     0.783390     -14.0362 
7.78066e-05     0.730548      19.1790 
0.000110479    0.0860233      54.4623 
0.00135816     0.733894      19.9164 
0.000102416    0.0921954      49.3987 
0.000403471     0.704060      11.4695 
0.000726699     0.108167      33.6901 
0.000878233     0.116619      30.9637 
0.000102223     0.702140      10.6698 
0.000295725     0.692315      10.8230 
0.000951917     0.125300      28.6105 
0.00106301     0.134164      26.5651 
0.000665965     0.690507      10.0080 
0.00316550     0.143178      24.7751 
0.00277183     0.795550     -14.5603 
0.00139720     0.680661      10.1543 
0.00461382    0.0565685      135.000 
0.000801672    0.0721111      56.3099 
0.000573153    0.0781025      50.1944 
0.000585454    0.0848528      45.0000 
0.000581890    0.0921955      40.6013 
0.000660151     0.100000      36.8699 
5.73935e-05     0.718053      12.8750 
0.000289565     0.781089      18.6669 
0.000118834     0.715891      12.0948 
0.000503201     0.771622      18.9046 
0.000598720      1.24036      1.38592 
0.000941321     0.809568      17.9873 
0.000109219     0.762168      19.1481 
0.000104420     0.752728      19.3978 
0.000569975      1.25064      1.83284 
6.37503e-05     0.743303      19.6538 
0.000541070    0.0670820      63.4349 
0.00305572    0.0538516      111.801 
0.00191640    0.0509902      101.310 
0.000111230    0.0640312      141.340 
0.00160678     0.266833     -12.9946 
0.000209919    0.0670820      153.435 
0.000224887    0.0761577      156.801 
0.000320776     0.276586     -12.5288 
0.000199032    0.0728011      164.055 
0.00104814     0.278927     -14.5345 
0.000402569    0.0824621      165.964 
0.000757241    0.0806225      172.875 
0.00237090    0.0900000      180.000 
0.00130661     0.161555      158.199 
0.000167682    0.0806225     -172.875 
0.000546777     0.165529      154.983 
0.000804195    0.0824621     -165.964 
0.000116783     0.288617     -14.0362 
0.000927273    0.0905538     -173.660 
0.00137464     0.257099     -13.4957 
0.000560039     0.158114      161.565 
0.000325924     0.100000      180.000 
0.000279043    0.0500000      90.0000 
0.000204720    0.0509902      78.6900 
0.000116728     0.120830      24.4439 
0.000283684     0.130000      22.6199 
0.00111158     0.139284      21.0375 
0.00324560    0.0500000      126.870 
0.000186519    0.0538517      68.1986 
0.000159325    0.0583095      59.0362 
3.06465e-05     0.102956      29.0546 
9.32611e-05     0.111803      26.5650 
0.00664649    0.0447213      116.565 
0.000174729    0.0640313      51.3402 
0.000446085    0.0799999      180.000 
0.00174023    0.0707107      45.0000 
3.20755e-05    0.0781025      39.8056 
2.32040e-05    0.0860233      35.5377 
3.04797e-05    0.0943398      32.0054 
0.000105223    0.0632456      161.565 
0.000292611    0.0707106      171.870 
0.000517263    0.0500000      143.130 
0.00170045    0.0424264      135.000 
1.15834e-05    0.0608276      170.538 
 0.0286998     0.318277      43.7270 
0.00166530     0.311127      45.0000 
0.00107363     0.318277      46.2730 
0.00372653     0.311448      47.6026 
0.000303160     0.349857      30.9638 
0.00112498     0.358469      30.1414 
0.000969744     0.306105      51.6325 
0.000617693     0.367151      29.3578 
0.000381120     0.302324      55.7843 
0.00507007    0.0360555      123.690 
0.00221733     0.420595      18.0042 
0.000852775    0.0761577     -66.8014 
0.00168750    0.0728011     -74.0546 
0.00101014    0.0583095      120.964 
0.000232961     0.430116      17.5924 
0.00354558    0.0316228      108.435 
0.00300754    0.0400000      180.000 
0.00129376    0.0400000      90.0000 
0.00629247    0.0282842      135.000 
0.000140581     0.427200      16.3139 
0.00141413    0.0412311      75.9637 
4.43620e-05     0.417612      16.6992 
0.000876653     0.705762      7.32641 
0.00138042    0.0583095     -149.036 
0.000465245     0.704557      6.51980 
0.000356809     0.714493      6.42875 
0.000739840    0.0640312     -141.340 
0.000332144     0.695845      7.43141 
0.000902756    0.0721110     -146.310 
0.000301856    0.0538516     -158.199 
7.11538e-05     0.694622      6.61346 
4.06993e-05     0.684690      6.70984 
0.00123897    0.0316228      161.565 
5.96799e-06    0.0412310     -165.964 
-0.00104729     0.353836      47.2906 
-0.000288112     0.367967      47.2026 
-4.47863e-05     0.284253      50.7106 
-0.000299206     0.374833      46.0809 
-0.000376225     0.264008      52.6960 
-0.000119736     0.381838      45.0000 
-0.000405739     0.250000      53.1301 
-0.000571299     0.395980      45.0000 
-0.000563069     0.244131      55.0080 
-0.000583236     0.403113      43.9949 
-0.000887678     0.230217      55.6196 
-0.000708366     0.410366      43.0251 
-0.00202293     0.224722      57.7244 
-0.000715721     0.417732      42.0892 
-0.000496931     0.425206      41.1859 
-3.07569e-05     0.336155      59.6209 
-0.000156212     0.432782      40.3141 
-0.000192529     0.331210      61.1134 
-0.000263030     0.326497      62.6501 
-5.00938e-05     0.440454      39.4725 
0.000837408     0.389487      29.1975 
-0.000204670     0.434166      38.4537 
-0.000422538     0.322025      64.2307 
-0.000143212     0.428019      37.4054 
-0.000129185     0.422019      36.3268 
-0.000295076     0.416173      35.2176 
0.000100695     0.453431      41.4237 
3.68665e-05     0.339706      47.3859 
-6.16384e-05     0.410488      34.0772 
0.00271325    0.0316228     -161.565 
0.000117163    0.0360555     -146.310 
0.000257254    0.0447213     -153.435 
0.00113606    0.0300000      180.000 
4.04112e-05    0.0424264     -135.000 
0.000105460    0.0500000     -126.870 
0.000174395    0.0583095     -120.964 
0.000265225    0.0670820     -116.565 
-0.00126937     0.326497      49.9697 
-0.000823353     0.318904      48.8141 
-4.40271e-05     0.333017      48.6522 
-1.36974e-05     0.346555      46.1691 
-1.35236e-05     0.353553      45.0000 
-2.65497e-05     0.360694      43.8767 
-3.86522e-05     0.367967      42.7974 
-4.94896e-05     0.375367      41.7603 
-9.25955e-05     0.382884      40.7636 
-0.00135836     0.219545      59.9314 
-9.46864e-05     0.390513      39.8056 
-1.04548e-05     0.330152      54.8658 
-5.68438e-05     0.332866      57.2648 
-0.000733720     0.398246      38.8845 
-5.54589e-05     0.327567      58.7363 
-5.69759e-05     0.404599      39.9869 
-5.53375e-05     0.331059      64.9831 
0.000686802     0.264008      65.3764 
-0.000138167     0.317805      65.8544 
0.000157791     0.410366      46.9749 
4.87830e-05     0.330152      35.1342 
2.06886e-05     0.338379      34.1597 
-0.000871493      1.54052      1.48787 
-0.000380028      1.54029      1.11601 
-0.000274164      1.54003    -0.372045 
-0.000217757      1.54081      1.85960 
-0.000435608      1.53003    -0.374477 
-0.000281471      1.54117      2.23117 
-0.000243109      1.54159      2.60256 
-0.000641521      1.55158      2.58579 
-0.000183409      1.52003    -0.376940 
-0.000100466      1.51003    -0.379437 
-6.04974e-05      1.50003    -0.381966 
-2.19624e-05      1.49003    -0.384530 
-0.000864677      1.46003    -0.392431 
-0.000141000      1.57003    -0.364936 
-0.000241048      1.56157      2.56924 
4.69766e-05      1.46055      1.56935 
0.000399131      1.47031      1.16914 
0.000164185      1.48030      1.16124 
0.000247002      1.50013     0.763898 
0.000385239      2.79508      153.435 
-0.00129016      4.84869     -60.7388 
0.00123437      2.79063      153.619 
-0.000438760      4.87312      71.8253 
0.000700692      3.08462      157.509 
0.000741276     0.773369      40.2799 
0.00137395      4.69915     -151.253 
0.000426862      5.36296      13.2589 
0.000454559      4.22928      38.2790 
-4.12932e-05      2.87628     -56.9177 
-0.000162183      4.88262      71.8619 
-0.000348572      2.87084     -57.0849 
0.000502542      2.70337     -141.307 
-0.000194803      3.74681      38.0627 
0.000401776      5.89042     -37.5508 
-0.000940008      4.88574      71.7505 
0.000261909      2.86142     -1.80242 
-7.29620e-05      2.21633      127.852 
-0.000474419      5.98453      35.2038 
-0.000685300      3.74513      38.2775 
-0.000428174      2.23036      127.898 
7.49971e-05      2.69713     -141.473 
-0.000291245      1.65774     -95.5386 
-0.000111353      3.81058      78.9555 
0.000800341      3.88021      179.409 
0.000143531      5.69759      47.4896 
0.000402903      2.75530     -160.052 
-0.000141720      3.11130     -135.260 
-0.000213606      3.02167      29.1099 
0.000373009      6.95589     -41.6199 
0.000363078      4.37659     -130.459 
-0.000401993      6.82608     -36.6013 
-0.000273476      2.86541     -57.2528 
-0.000545797      3.80867      79.1031 
0.000264019      5.84946      33.2826 
0.000201685      2.11464      38.2790 
0.000388105      5.35093      13.1792 
0.000352437      5.65722     -132.062 
3.54049e-05      5.55590     -41.2053 
0.000271661      1.64806      109.864 
-0.000100929      2.21020      127.648 
0.000407514      2.46455      105.051 
0.000166421      2.87141     -1.79614 
-0.000268012      1.64879     -95.9181 
6.90379e-05      4.97229     -143.752 
0.000401097      4.78299      118.333 
-0.000200631      4.60977     -114.341 
-0.000158731      7.02699      37.8321 
0.000785250      4.11847      98.7990 
-0.000473087      4.74031      48.6776 
-0.000764665      3.01294      29.2024 
9.91904e-05      5.54932     -41.1276 
0.000703510      2.89456      163.130 
0.000284165      4.96423     -143.684 
0.000190600     0.774661      39.2374 
0.000644438      4.58681     -80.2091 
0.000287431      4.21523      38.2565 
0.000219252      5.65052     -131.987 
-0.000682926      3.75299      38.1829 
0.000159946      3.86219      128.799 
-0.000184831      5.48372     -27.5931 
-3.28137e-05      3.08370     -30.3902 
3.27390e-05      5.70435      47.4155 
3.27317e-05      5.84003      52.9339 
3.26686e-05      3.96797     -138.678 
-6.39875e-05      2.08339      51.0395 
-0.000248876      3.04962      121.866 
9.60571e-05      4.00346     -167.595 
9.20591e-05      1.65148      110.191 
-0.000799441      1.33959      59.9899 
-0.000157481      3.07002      142.943 
-3.23319e-05      3.08730     -30.1362 
6.39135e-05      3.97549     -138.773 
-0.000332228      4.61889     -114.290 
-0.000154336      2.86002     -57.4213 
0.000309064      5.89227     -37.4144 
-6.33222e-05      3.10717     -29.2874 
-0.000608159      1.65873     -95.8824 
0.000642587      1.94281     -128.522 
0.000120886      2.64775      101.989 
0.000176977      3.10693      157.479 
-0.000212131      3.11589     -29.1975 
0.000178767      5.16310      22.7906 
0.000704756      4.00132     -167.735 
0.000236747      3.96890     -138.882 
0.000266360      6.96337     -41.5652 
0.000476801      2.15870     -166.608 
0.000120194      2.12085      38.4910 
0.000282613      2.74505      82.2536 
0.000313654      6.39932      39.6107 
-0.000990206      6.83411     -36.5513 
8.99456e-05      2.87111     -1.59668 
-3.06060e-05      4.84381     -60.8420 
0.000285709      3.85593      128.683 
0.000233071      2.25417      25.7693 
-3.04005e-05      2.08195      50.6525 
-0.000468494      4.73371      48.7685 
-0.000227739      3.06204      142.831 
-0.000380336      3.83283      62.8333 
0.000116492      2.75191     -160.248 
-8.68176e-05      3.36966      74.6852 
0.000197278      2.85771     -169.516 
0.000362940      2.78167      153.527 
-0.000265912      4.05444      12.3909 
-0.000143554      4.48116      63.7780 
-0.000510480      3.04113      121.965 
-0.000466841      3.05105      178.498 
8.63036e-05      4.56859     -130.384 
2.92786e-05      4.38308     -130.559 
8.58914e-05      3.52800     -9.46232 
0.000203645     0.776209      38.1987 
-0.000318191      5.46059      118.912 
-0.000329855      3.12463     -29.1080 
0.000275644      4.97016     -143.591 
0.000861086      1.12712      27.4744 
-0.000139434      2.85465     -57.5904 
-0.000164249     0.559017     -10.3048 
-0.000133237      3.83888     -97.0325 
5.69658e-05      5.49229     -29.9260 
8.03862e-05      5.84110      33.3364 
0.000159710      1.13600      27.2417 
-2.83928e-05      2.08830      50.4403 
2.83708e-05      3.31073     -97.8119 
8.41697e-05     0.906863     -138.576 
0.000182284      5.33892      13.0992 
2.83097e-05      7.16197     -40.6967 
0.000134308      2.12869      38.3235 
0.000191498      3.26435     -162.897 
0.000135564      2.74591     -159.981 
0.000158379      5.48362     -29.9782 
-8.18204e-05      1.27475     -138.180 
-0.000257827      4.62301     -114.403 
8.10841e-05      5.15923      22.6882 
-0.000311955      3.84012     -97.1805 
-0.000402168      4.47675      63.8928 
0.000204820      3.51650     -9.32839 
0.000179845      6.97085     -41.5107 
0.000198705      4.56212     -130.288 
8.06922e-05      3.30082     -97.8355 
2.75278e-05      2.65962      102.155 
-0.000195683      3.37231      74.5214 
0.000659139     0.913510     -138.106 
0.000156684      7.19757     -41.5079 
-5.37711e-05      1.18600     -53.2267 
-0.000216337      3.11841     -135.390 
5.39473e-05      2.24517      25.8803 
0.000491668      3.97644     -138.977 
7.77812e-05      2.88111     -1.59114 
-0.000555144      2.38248      111.935 
0.000102712      3.36381     -115.346 
-0.000283555      3.00807      29.0361 
5.23412e-05      7.16304     -40.5839 
-2.68968e-05      2.11116      124.970 
2.67491e-05      4.22670     -62.5256 
0.000247379      2.65754      101.944 
0.000178192      2.85591     -169.713 
0.000145109      1.26625      24.7435 
-0.000337804      3.04803      142.867 
7.60863e-05      5.85404      52.9148 
-5.24639e-05      3.94443     -143.973 
-7.81072e-05      2.84930     -57.7601 
0.000102151      2.25887      25.4306 
-7.71066e-05      2.10545      124.747 
-0.000370395      2.35669      59.9536 
0.000103065      3.84187      128.660 
0.000151896      4.23132     -62.4054 
2.62077e-05      3.11617      157.550 
0.000364132      3.27391     -162.949 
-7.47339e-05      5.47910     -27.5004 
-5.14434e-05      2.53340      121.933 
-0.000192652      1.26732     -137.878 
0.000456169      4.69038     -151.195 
0.000122843      2.46197      104.826 
0.000484036      6.39162      39.6678 
2.58919e-05      4.38420     -130.374 
-7.52383e-05      1.19202     -52.8417 
0.000193583      2.74250     -160.178 
7.49174e-05      3.29947     -97.6635 
0.000226287      5.15001      22.7311 
0.000259158      4.96212     -143.523 
-0.000678565      3.95032     -143.855 
-2.55422e-05      3.13337     -29.0191 
-7.51503e-05      4.83741     -122.934 
5.02273e-05      4.77825      118.228 
0.000206696      2.69557     -141.174 
-7.34741e-05      4.61390     -114.454 
5.00747e-05      5.22644      127.615 
0.000142301      4.72492      30.5270 
-0.000262624      3.12950     -29.2680 
-0.000146217      2.83551     -57.8233 
7.27246e-05      3.12923      157.451 
-0.000228268     0.549181     -10.4915 
0.000304925      1.11826      27.7108 
0.000587521      7.20420     -41.5675 
-0.000112973      5.51403      28.8427 
0.000486801      2.16104     -166.350 
0.000163534      3.83564      128.543 
0.000271596      2.59083      57.2913 
9.66145e-05      2.13654      38.1572 
-0.000142797      2.09976      124.523 
2.46343e-05      4.39068     -130.474 
-0.000167561      4.05209     -88.1615 
-0.000212584      4.59505     -101.041 
9.39454e-05      2.24984      25.5400 
-0.000794290      3.02828      80.8798 
-9.41863e-05      4.83994     -123.198 
4.74280e-05      5.47496     -30.0305 
-0.000449624      3.01682      28.9439 
0.000158270      5.88433     -37.4736 
2.42035e-05      5.22464      127.769 
-0.000240357      3.76085      38.0888 
2.41873e-05      2.75496      82.2817 
2.41504e-05      2.15177      27.9942 
0.000131852      4.20905      38.1496 
0.000128699      4.68667      3.05777 
0.000147335      2.61521     -71.4958 
-0.000216191      6.84007     -36.6186 
9.24985e-05      4.82628      148.385 
9.43278e-05      5.20202      126.716 
-0.000807907      1.08074      128.991 
0.000201920      2.86575     -169.749 
0.000237914      4.24019     -62.4680 
9.22751e-05      4.76944      118.284 
0.000266374      4.10329      24.6289 
0.000325318      1.94126     -128.936 
0.000252453      4.67669      3.06430 
-0.000213299      3.82394      62.7649 
0.000553743      4.01110     -167.766 
9.03878e-05      4.08725      168.140 
4.69737e-05      2.14294      28.1197 
2.35654e-05      3.29815     -97.4913 
2.33737e-05      2.41174     -99.3061 
6.94945e-05      3.88326     -32.9125 
4.60339e-05      3.35954     -115.192 
-4.55878e-05      3.81849      79.1315 
-9.17411e-05      4.06208     -88.1660 
4.60892e-05      3.28824     -97.5140 
-0.00119506      5.56004     -126.664 
6.76271e-05      2.14441      37.9922 
-0.000352683      5.46543      119.004 
-0.000255312      2.40454      133.989 
-0.000108829      5.46561     -27.4558 
-9.01024e-05      4.61805     -114.567 
-6.79111e-05      2.83019     -57.9946 
2.28848e-05      2.40352     -99.5799 
0.000374479      4.54802     -130.273 
-0.000152503      3.38001      175.588 
0.000133280      5.19605      126.627 
4.39786e-05      3.87487     -32.9929 
-0.000488502      4.47236      64.0079 
-2.26927e-05      2.09411      124.297 
8.81665e-05      3.19188     -98.1047 
-0.000151184      1.65979     -96.2258 
-0.000515030      4.60487     -101.017 
-6.55952e-05      5.83693      22.5670 
-0.000175656      4.06177     -88.3070 
8.84442e-05      2.39366     -99.6197 
-8.83024e-05      2.10238      124.144 
0.000132092      3.89709     -32.9561 
-0.00116620      5.85491      134.723 
4.46349e-05      2.13413      28.2462 
8.74831e-05      3.28694     -97.3412 
-6.61526e-05      3.07132      178.321 
6.55671e-05      2.47421      104.991 
-4.39461e-05      4.83198     -122.835 
-0.000231652      4.34940      133.975 
0.000292021      2.73309     -160.106 
0.000141662     0.920978     -138.521 
-0.000125484      4.89524      71.7871 
-0.000263710      3.13441     -29.4275 
-6.55347e-05      4.35496     -138.071 
0.000124161      4.59666     -80.2303 
-4.31171e-05      2.09468      50.2294 
4.35836e-05      2.61205     -71.7038 
-2.19712e-05      2.81642     -58.0593 
-0.000730500      4.74782      48.7573 
-0.000208773      3.03585      121.805 
-4.31609e-05      3.02671      81.0667 
0.000243175      3.28347     -163.000 
4.27707e-05      2.26365      25.0933 
-2.18447e-05      4.48416      53.6156 
4.18832e-05      3.14231      157.352 
-0.000165548      4.62715     -114.516 
0.000125760      7.76357      39.0402 
2.17868e-05      5.46631     -30.0829 
0.000186886      4.76471      118.179 
6.42047e-05      2.12532      28.3738 
-0.000267023      3.53006     0.324619 
-0.000102093      4.75442      48.6667 
-0.000126265      2.81114     -58.2323 
-0.000358995      3.76873      37.9950 
2.15780e-05      4.21353     -60.5756 
2.15589e-05      2.15058      38.2021 
5.95325e-05      3.50502     -9.19358 
0.000232458      2.77723      153.712 
0.000220530      6.11435      10.0785 
7.56139e-05      2.38550     -99.8967 
-0.000299155      4.07177     -88.3112 
-0.000121910      3.04007      142.753 
4.15408e-05      4.82105      148.486 
8.22848e-05      5.22288      127.923 
2.13025e-05     0.754321     -128.541 
-4.22580e-05      4.17929     -135.679 
0.000199918      2.37565     -99.9381 
8.30055e-05      5.19009      126.539 
-4.21442e-05      2.09678      123.917 
-0.000139268      3.06132      178.315 
9.91770e-05      3.82941      128.426 
0.000119824      4.87001      89.8823 
-4.18129e-05      4.34753     -137.983 
0.000122411      2.15845      38.0380 
2.10189e-05      3.28568     -97.1683 
-4.12220e-05      3.82039      78.9842 
-0.000384903      1.34462      59.6209 
0.000331380      3.88870     -33.0362 
4.16791e-05      5.44901     -30.1883 
2.09845e-05      5.86008      52.8368 
0.00102779      3.98399     -139.071 
0.000122263     0.748131     -127.942 
0.000338619     0.768375      38.6598 
0.000307184      2.88500      163.072 
0.000155746      3.20178     -98.0795 
-8.19392e-05      4.18645     -135.774 
2.08480e-05      3.36859     -115.120 
-6.12140e-05      5.83154      22.6954 
-8.07855e-05      4.89655     -125.021 
0.000165330      2.62155     -71.7724 
-0.000550979      4.37922     -140.932 
0.000100758      2.86398     -169.946 
2.06839e-05      4.24482     -62.3483 
0.000229128      4.11695      98.6615 
6.09478e-05      2.11653      28.5024 
4.10120e-05      3.27703     -97.3636 
7.85614e-05      4.95408     -143.454 
0.000115284      2.47164      104.767 
-5.95856e-05      3.37500      74.3578 
0.000136763      2.26850      24.7575 
-0.000100327      2.09955      123.539 
0.000151338     0.610082     -89.0608 
4.06722e-05      4.98036      58.7995 
2.03258e-05      5.87639     -37.5329 
-2.03275e-05      2.35170      60.1645 
-9.63754e-05      5.50527      28.8929 
0.000172263      4.09420      24.6872 
-9.78732e-05      5.46101     -27.3627 
-2.02604e-05      4.33202     -137.620 
-7.90034e-05      3.02736      121.905 
0.000413733      4.19033     -23.9347 
5.94146e-05      5.44037     -30.2413 
-7.90590e-05      2.79213     -58.4732 
-0.000115634      3.38999      175.601 
-5.93773e-05      1.65097     -96.6085 
0.000109323      4.09258      70.5910 
0.000336559      4.97181      58.7398 
5.96400e-05      3.53402     -37.0644 
7.73944e-05      4.71123      30.4840 
0.000125318      1.25240      25.5420 
9.66043e-05      5.18414      126.450 
-0.000209768      4.17469     -109.303 
-0.000129188      4.52436     -38.7191 
5.87125e-05      3.27576     -97.1901 
0.000425793      7.75580      39.0867 
-1.99543e-05      2.10109      50.0199 
-7.51755e-05      4.11122     -88.6062 
-0.000420687      4.16515     -135.681 
0.000205426      6.12395     -12.4476 
1.98537e-05      2.07762      29.4028 
-0.000331518      3.80636     -46.9162 
-3.93815e-05      4.32464     -137.530 
7.76750e-05     0.742024     -127.333 
-9.46406e-05      2.34303      60.0428 
5.72109e-05      4.28869      34.8388 
-5.82434e-05      5.81698      22.8623 
0.000189772      2.61008      57.0406 
-1.96573e-05      4.34968      133.789 
1.96398e-05      5.87409      52.8180 
0.000112155      5.87031     -37.4555 
-0.000157120      4.12098     -88.7486 
1.95551e-05      1.65412      109.421 
0.000247560      5.21500      127.991 
-5.74452e-05      3.76258      142.125 
0.000209673      4.82958      148.548 
-0.000283438      4.89838      71.6760 
1.94381e-05      7.13595     -40.4532 
1.94313e-05      1.08245     -43.1283 
7.66382e-05      3.53600     -36.8375 
8.61559e-05      5.66464     -131.995 
0.000149565      6.12052     -21.8709 
5.67472e-05      2.31035    -0.992036 
-0.000354422      4.34246      133.880 
7.56638e-05      2.10775      28.6322 
0.000454459      4.01323     -167.626 
0.000148287      3.97745     -139.180 
-1.93059e-05      4.09148     -88.4594 
-1.92856e-05      4.90230     -125.116 
0.000131137      1.08977     -42.7688 
-0.000129036      1.66090     -96.5688 
-1.92335e-05      2.67660      138.029 
7.43271e-05      2.87383     -169.980 
-9.32458e-05      4.63131     -114.628 
0.000465565      4.71641     -107.013 
-3.80991e-05      2.10240      123.161 
-1.91620e-05      2.78692     -58.6484 
-0.000110316      6.84214     -36.5014 
0.000164298      5.29417      52.6756 
1.90840e-05      2.16633      37.8750 
-0.000370292      3.02209      121.744 
-1.90757e-05      4.31727     -137.441 
-5.67156e-05      5.80246      23.0300 
0.000108954      1.94756     -129.165 
5.55978e-05      6.12420      10.0622 
-3.71713e-05      3.02605      142.789 
7.39519e-05      5.43173     -30.2944 
-1.89787e-05      2.77318     -58.7173 
-7.42572e-05      4.90567     -125.375 
0.000182515     0.734098     -127.807 
0.000388435      3.26584     -97.2121 
0.000212917      2.72369     -160.035 
1.88755e-05      4.21845     -60.4573 
-0.000161613      3.52001     0.162772 
-5.43104e-05      1.21037     -51.7098 
0.000136460      4.54156     -130.177 
1.88464e-05      5.18626      126.295 
-0.000200189      3.36537      74.3118 
8.84563e-05      2.74642      82.0469 
0.000103059      3.87032      179.260 
-7.39086e-05      2.76800     -58.8942 
-2.97352e-05      3.01081      178.668 
-0.000141647      2.38623      112.158 
-7.35466e-05      2.10535      122.784 
-0.000123100      3.12554     -135.519 
5.53057e-05      3.54401     -36.7406 
-4.60575e-05      3.03106      178.488 
-0.000309026      5.07213     -43.3224 
-5.53024e-05      5.79325      23.0687 
-0.000426608      4.60297     -100.895 
-1.85031e-05      3.03211      142.639 
-7.26635e-05      3.52639     -168.053 
-6.99126e-05      3.75469      142.031 
-1.84470e-05      4.30991     -137.351 
1.84180e-05      1.65082      109.093 
1.84172e-05      7.14356     -40.4012 
-8.82831e-05      5.69225     -44.7865 
0.000224556      2.26433      24.5277 
0.000219745      3.28056     -163.167 
-1.82564e-05      3.81505      62.6961 
0.000132900      5.17820      126.361 
-0.000836887      6.27353     -31.3083 
3.55418e-05      5.88014      52.7403 
-1.81552e-05      4.08148     -88.4556 
3.60584e-05      6.38392      39.7251 
7.16450e-05      1.08301     -42.3805 
-5.34540e-05      5.45642     -27.2695 
-8.89823e-05      4.57121     -94.0142 
-3.51418e-05      3.73343     -177.544 
-8.94305e-05      5.78799      23.1986 
-5.27391e-05      3.39996      175.614 
3.55450e-05      3.49515     -9.21977 
1.80444e-05      4.22715     -60.5241 
0.000240088      5.30024      52.5896 
-3.09066e-05      4.29471     -136.981 
9.70099e-05      3.53804     -36.6108 
0.000234104      3.26460     -97.0379 
-3.56671e-05      2.74401     -59.3227 
-0.000236713      4.17139     -109.173 
7.01036e-05      3.90254     -33.0793 
-0.000103505      4.91147     -125.470 
0.000273443      2.37739     -100.176 
-1.79111e-05      4.07149     -88.4518 
-1.78993e-05      5.50045      28.8017 
6.96137e-05      4.28299      34.7290 
-6.96263e-05      3.01810      142.674 
0.000231278      6.11611      10.1708 
-0.000248686      4.46799      64.1232 
0.000358009      6.10752     -21.8188 
1.78367e-05      2.30020    -0.747294 
8.50697e-05      2.68779     -141.041 
3.50445e-05      3.83725      128.333 
1.77969e-05      5.86346      7.74316 
-5.11570e-05      3.08162      178.140 
-3.52214e-05      4.64040     -114.577 
-6.83566e-05      2.33805      60.2551 
-1.77633e-05      2.11376      122.638 
-1.77411e-05      2.09990      49.6355 
0.000112496      1.00960     -106.101 
0.000135613      5.86237     -37.5150 
3.49793e-05      3.88032     -33.1167 
1.77348e-05      4.53393     -130.259 
5.10294e-05      2.09898      28.7630 
6.68189e-05      2.65548      101.733 
0.000115191      2.87211     -170.177 
6.83089e-05      4.88000      90.0000 
0.000277352      7.19672     -41.6203 
0.000334202      7.36230      37.3835 
-1.76548e-05      3.83407      78.7194 
5.16571e-05      4.09839      24.8142 
8.63576e-05      5.42310     -30.3477 
-0.000132999      1.66027      71.0194 
-8.54578e-05      2.10839      122.409 
-0.000128181      3.00082      178.663 
0.000411526      1.09041     -42.0263 
-0.000277025      4.50111      141.857 
-3.49998e-05      6.84425     -36.3844 
0.000143684      6.47038      128.978 
0.000183108      6.11419     -12.4678 
-0.000196179      3.53617     -168.086 
-0.000170469      5.77880      23.2376 
0.000166259      4.52747     -130.162 
0.000179344      6.37754      39.6560 
0.000344058     0.728011     -127.185 
-3.34324e-05      4.74959     -119.101 
-3.48129e-05      2.73892     -59.5026 
-0.000166770      1.66208     -96.9112 
-0.000133004      7.28431     -43.9988 
5.14268e-05      2.29020    -0.750557 
5.07609e-05      1.01242     -106.645 
9.77778e-05      3.21168     -98.0544 
-0.000137786      4.30202     -137.072 
1.73529e-05      4.23208     -60.4063 
-5.12668e-05      3.83604      78.5729 
3.37794e-05      2.17424      37.7132 
-0.000300542      4.57053     -93.8891 
-8.51133e-05      6.85444     -36.2179 
3.10776e-05     0.935094     -138.468 
1.72437e-05      5.30295      12.8569 
3.37949e-05      4.24906     -62.5304 
9.93273e-05      2.87252      163.205 
0.000203359      4.11546      98.5239 
0.000208584      4.97701      58.6414 
3.37601e-05      4.40592     -130.305 
-3.41071e-05      2.73386     -59.6832 
-4.95361e-05      5.49168      28.8519 
9.78145e-05      6.48444      128.991 
-3.38787e-05      5.44753     -27.3177 
-6.68254e-05      4.64457     -114.689 
-6.60825e-05      3.00408      142.710 
-3.36943e-05      4.06149     -88.4480 
9.94518e-05      5.18035      126.206 
-6.74521e-05      3.81367     -47.0189 
0.000275490      3.54607     -36.5144 
-0.000145551      3.94816     -143.653 
-4.96752e-05      4.52593     -38.5412 
9.60938e-05      4.94605     -143.385 
0.000114168      3.89416     -33.1596 
-3.32128e-05      2.09881      49.2507 
9.85699e-05      5.74270     -18.3718 
-0.000127806      3.51001     0.163235 
-3.34844e-05      2.72883     -59.8645 
-0.000157502      3.40918      175.795 
-1.67391e-05      4.76319     -119.148 
1.67078e-05      5.86212      7.64631 
-0.000344205      6.85662     -36.1011 
0.000127139      5.41447     -30.4012 
-9.52152e-05      5.44295     -27.2241 
0.000140459      3.26339     -96.8637 
8.08389e-05      4.27730      34.6189 
-6.49270e-05      5.09558     -97.6689 
0.000152654     0.610000     -90.0000 
-0.000219883      3.80686     -47.1290 
-1.65346e-05      3.84783      78.4564 
1.65367e-05      4.47967      151.318 
-0.000124427      4.15800     -135.585 
-1.65157e-05      2.72382     -60.0464 
-0.000410279      4.53328     -103.392 
-4.79799e-05      3.59724     -146.222 
-6.07998e-05      2.41868      133.995 
3.24617e-05      1.93982     -129.352 
6.35471e-05      5.89415      52.7218 
0.000202999      5.20712      128.058 
-4.86698e-05      4.37101     -4.06694 
-0.000701437      5.77357      23.3680 
1.64182e-05      4.40710     -130.122 
1.64159e-05      2.28020    -0.753848 
6.44107e-05      2.71774     -159.765 
-1.63896e-05      1.21659     -51.3402 
0.000320250      4.47089      151.257 
6.22614e-05      2.73792      81.8107 
3.18574e-05      4.08932      24.8730 
0.000262819      5.17228      126.272 
1.63377e-05      2.17076     -166.412 
-0.000110401      4.13077     -88.8903 
-0.000124484      3.03059      121.645 
-3.23648e-05      2.11684      122.264 
-1.62589e-05      4.91498     -125.727 
-6.42108e-05      2.71884     -60.2290 
-0.000278705      2.99082      178.659 
-1.61912e-05      3.01015      142.559 
3.22557e-05      4.62353      70.9380 
-7.89227e-05      5.54617      62.5109 
9.45075e-05      2.91529     -76.1068 
6.31034e-05      5.02260      131.529 
-3.18101e-05      4.75446     -119.207 
3.21882e-05      1.63768      171.573 
-7.72834e-05      3.84984      78.3106 
-0.000164628      4.30935     -137.163 
-6.19833e-05      4.47180     -119.030 
0.000155669      4.40832     -129.939 
0.000200758      5.38457     -116.946 
0.000273828      5.04287      122.776 
-0.000163963      4.91728     -125.565 
-3.17291e-05      4.64875     -114.801 
0.000231582      2.88196     -170.211 
9.43291e-05      4.62027      71.0552 
0.000125821      4.76000      118.072 
-9.27476e-05      4.53375     -38.4624 
0.000312339      3.25467     -97.0595 
0.000324516      5.73321     -18.4033 
0.000288327      1.62779      171.521 
-0.000181970      7.27486      35.2630 
-0.000182624      2.99613      142.595 
0.000498308      7.74174      39.0759 
-0.000179809      2.71389     -60.4122 
-0.000222427      4.38098     -4.05766 
-0.000108686      2.10535      49.0445 
-6.07179e-05      2.97061      178.843 
0.000209911      2.86295      163.147 
8.89143e-05      2.62469     -71.5651 
4.68900e-05      4.01538     -167.487 
1.57915e-05      5.85444     -37.5746 
-4.64882e-05      4.14386     -135.587 
-3.07137e-05      2.87179     -84.8056 
1.57448e-05      4.61807     -80.1501 
3.10424e-05      4.09871      70.7693 
0.000118214      2.26932      24.1932 
-1.57255e-05      2.12530      122.120 
-7.67182e-05      5.23893      69.9048 
0.000451684      7.37024      37.3363 
-0.000179283      1.66331     -97.2532 
-0.000121718      5.08567     -97.6840 
0.000419908      6.11635     -12.5593 
-7.59823e-05      4.54301     -103.363 
4.63903e-05      3.00568     -74.7616 
6.11680e-05      1.24338      25.7407 
0.000179338      5.08343     -19.8964 
-0.000166241      4.60109     -100.773 
-0.000148737      6.21400     -40.4313 
4.42380e-05      1.94618     -129.579 
-0.000507345      7.32069      41.1786 
6.13053e-05      2.70836     -159.692 
-4.56469e-05      2.37245     -142.019 
-0.000119971      4.15867     -109.088 
7.60833e-05      3.87195     -33.1976 
0.000436225      5.17445      126.117 
0.000233202      5.84835     -37.4969 
0.000631828     0.722011     -126.552 
1.55009e-05      6.80486      48.0378 
-5.84331e-05      2.39927      112.289 
1.54666e-05      2.26009    -0.507029 
-3.06498e-05      4.65296     -114.913 
8.94026e-05      4.27163      34.5085 
0.000146992      3.53375      166.082 
-6.08735e-05      4.96823     -72.1850 
0.000134251      4.02515     -167.518 
-1.53455e-05      1.22287     -50.9743 
1.53346e-05      5.29098      12.7755 
9.02823e-05      4.61703      71.1726 
1.53118e-05      2.09022      28.8949 
5.93655e-05      1.14490      27.0127 
-0.000130140      2.70897     -60.5962 
7.39671e-05      3.29014     -163.217 
-5.97000e-05      3.95840     -143.941 
-0.000103641      5.55504      62.5585 
0.000390744      4.93803     -143.316 
8.85304e-05      6.81155      47.9753 
-7.40203e-05      4.75935     -119.312 
7.06649e-05      2.66528      101.689 
0.000172431      3.87021      179.408 
8.91944e-05      3.01796     -74.6283 
0.000426821      6.36984      39.7134 
-4.48079e-05      2.13378      121.977 
8.81226e-05      5.01597      131.444 
-0.000250785      4.13098     -88.7516 
-8.92444e-05      4.49494      141.957 
-0.000147845      6.63907     -35.1263 
-0.000127107      5.33150     -3.76404 
-0.000101252      5.42948     -27.1786 
-2.97159e-05      1.25176     -135.971 
0.000100213      5.90021      52.6446 
7.28807e-05      2.88669      65.6546 
-4.42456e-05      4.65718     -115.024 
0.000804700      4.62433      152.992 
0.000223299      2.91290     -76.2977 
-0.000593331      2.09781      48.8655 
-4.44533e-05      1.34826      60.2024 
4.43007e-05      5.40585     -30.4548 
-0.000311699      4.96518     -72.2949 
1.49177e-05      1.97914      31.3609 
2.92440e-05      6.47667      129.047 
0.000152134      7.20337     -41.6798 
1.48910e-05      4.87607     -99.4430 
-4.32749e-05      3.02536      121.483 
5.82686e-05      2.70248     -159.419 
5.84048e-05      4.41599     -129.855 
0.000231720      3.25592     -97.2341 
-0.000167322      4.53538     -38.2849 
0.000342486      4.19440     -24.0596 
-0.000250730      3.82099     -47.1211 
8.44094e-05      2.72802      81.7808 
4.26224e-05      6.12595      10.1543 
-5.76529e-05      1.40207     -143.702 
0.000223687      2.37918     -100.413 
1.47447e-05      6.09824     -21.8538 
-4.32955e-05      4.46696     -118.918 
2.87824e-05      5.30074      12.7516 
-1.46956e-05      5.47418      28.9529 
0.000154541      4.87772     -99.5589 
-1.46820e-05      5.23299      69.7643 
0.000262046      5.38911     -117.041 
-4.29865e-05      3.50001     0.163702 
0.000274047      5.20885      127.904 
2.91084e-05      1.01651     -105.403 
-0.000211898      4.58940     -100.673 
7.21912e-05      6.09452     -21.7665 
-0.000141524      5.08701     -97.7956 
1.46317e-05      4.62793     -80.1713 
0.000100737      4.61382      71.2902 
-0.000400225      6.85073     -36.0335 
-0.000205212      6.30067      32.2271 
0.000152192      3.24728     -97.4314 
-0.000193950      4.48707      141.879 
-7.12973e-05      5.23646      69.6617 
-0.000110868      2.14227      121.835 
7.09748e-05      4.18527     -24.1154 
4.21946e-05      4.98222      58.5432 
-0.000179970      7.42437     -42.5436 
2.87715e-05      3.88579     -33.2402 
-5.70541e-05      4.66142     -115.136 
-9.65529e-05      1.35326      59.8350 
-4.20667e-05      4.46363      64.2386 
-0.000176791      5.55044      62.6501 
0.000255032      3.02063     -74.4454 
-2.82388e-05      1.07448      128.577 
-0.000622546      6.63333     -35.0557 
6.97201e-05      5.40079     -30.3633 
0.000388031      1.62635      171.870 
1.43519e-05      6.10659     -12.5797 
0.000253498      5.07403     -19.9349 
2.83336e-05      1.23438      25.9423 
-4.20535e-05      3.96648     -144.026 
2.85310e-05      4.02732     -167.379 
-0.000151051      2.98819      142.478 
-1.42698e-05      2.36631     -142.210 
7.55504e-05      4.53512     -130.081 
1.42478e-05      5.67134     -132.070 
-0.000218588      1.41156      103.938 
0.000230288      6.81898      48.0315 
-1.42520e-05      5.25929     -4.90840 
-2.79041e-05      3.54596     -168.120 
-0.000112045      7.03631     -45.7485 
4.17417e-05      1.01390     -104.859 
-0.000267433      2.10440      48.6604 
0.000111113      5.00936      131.358 
-1.41616e-05      3.02076      28.6861 
2.81887e-05      5.56723     -121.634 
-2.81593e-05      4.56986     -93.7640 
-1.41077e-05      3.85188      78.1650 
-0.000119953      7.28880      35.2818 
5.51449e-05      4.42368     -129.772 
5.54640e-05      2.69666     -159.146 
0.000245364      6.08524     -21.8014 
9.67926e-05      4.61062      71.4079 
0.000123691      4.03708     -167.410 
4.08643e-05     0.620081     -90.9240 
2.78700e-05      1.15382      26.7871 
0.000120516      4.83480      148.447 
-9.64536e-05      3.73568      38.5879 
0.000135413      4.46213      151.195 
0.000170159      4.11399      98.3861 
-2.78222e-05      4.16812     -109.044 
0.000123231      3.53136      166.239 
1.39982e-05      2.85338      163.089 
2.75513e-05      3.87743     -33.3212 
0.000134352      4.52103     -130.065 
2.76515e-05      4.63949     -80.0707 
0.000137018      5.58099     -121.668 
-8.20366e-05      4.66567     -115.247 
2.74488e-05      4.26597      34.3978 
-0.000231022      4.88889      71.6392 
6.68077e-05      3.29971     -163.267 
-0.000135984      5.56601     -126.746 
0.000174294      2.84092      163.223 
-1.39067e-05      4.76425     -119.417 
-8.14951e-05      6.20639     -40.4911 
-2.76830e-05      4.58050     -93.8806 
9.45387e-05      3.53208     -36.4806 
-7.97896e-05      3.49000      0.00000 
-6.82285e-05      5.44401      36.7857 
-8.12642e-05      5.23994      69.5591 
-4.06085e-05      1.41605     -143.616 
-0.000368810      3.87587     -133.746 
2.72450e-05      4.69666      3.05126 
-4.05958e-05      1.66460     -97.5946 
-9.45149e-05      2.70407     -60.7808 
-2.72860e-05      4.17231     -135.777 
-2.74627e-05      7.02934     -45.8069 
-6.61862e-05      2.41174      133.824 
0.000193536      5.29555     -115.742 
6.60482e-05      4.75530      117.966 
1.37037e-05      2.46911      104.543 
-0.000275437      4.54070     -103.241 
-2.71306e-05      3.03389      121.385 
8.06096e-05      5.84042     -37.5566 
0.000814968      7.72767      39.0651 
0.000119843      4.69435     -151.360 
-0.000342552      7.02217     -45.7501 
-0.000216405      4.57984     -93.7558 
-0.000146797      5.07711     -97.8109 
-0.000450398      5.86202      134.654 
0.000103848      4.70392     -106.933 
-0.000198715      4.58756     -100.551 
0.000400730      7.37820      37.2892 
-1.35858e-05      2.22389      160.017 
-2.68353e-05      5.30506      30.0932 
0.000145916      4.60744      71.5257 
2.68820e-05      4.18120     -23.9903 
5.23252e-05      1.18512      26.5651 
9.32567e-05      5.00276      131.272 
5.32201e-05      5.72372     -18.4349 
0.000284088      3.43577     -82.9784 
-1.34922e-05      3.86373      78.0502 
4.02885e-05      6.10878     -12.6712 
-1.34779e-05      2.11192      48.8396 
-0.000118388      3.72787      38.6838 
2.66726e-05      2.69091     -158.871 
6.37461e-05      5.31049      12.7278 
0.000687519      2.92500     -76.1538 
-1.34149e-05      5.42059     -27.2269 
3.98124e-05      2.47879      104.485 
0.000169679      5.58624     -121.755 
0.00121887      6.11854     -12.6507 
-0.000102388      2.23329      160.105 
6.54586e-05      4.64934     -80.0920 
-1.33641e-05      6.10306     -4.98194 
0.000129026      5.91423      52.6263 
2.64323e-05      1.22540      26.1468 
0.000331429      6.11265      1.68744 
0.000354720      3.52165      166.201 
-1.33527e-05      4.76193      48.7462 
-2.64960e-05      4.17949     -135.872 
-1.33451e-05      4.90805     -125.212 
6.47712e-05      3.89129     -33.3634 
-2.63961e-05      3.13933     -29.5864 
7.64092e-05     0.716101     -125.910 
-2.64918e-05      4.86835     -61.5398 
0.000115882      4.04902     -167.302 
1.32601e-05      1.02108     -104.172 
-0.000189527      6.09223     -4.89642 
-6.50810e-05      4.38699     -141.014 
-6.43316e-05      6.19990     -40.4209 
-0.000149646      5.43600      36.8488 
3.94846e-05      2.38101     -100.649 
0.000140157      4.87940     -99.6747 
0.000149585      2.71958      81.5422 
-0.000116550      5.57403     -126.685 
-5.18454e-05      4.66995     -115.358 
-3.86795e-05      4.75534      48.8367 
1.32074e-05      5.39216     -30.4171 
-0.000254232      5.24344      69.4567 
-1.31795e-05      4.51852     -140.568 
2.62896e-05      4.04684     -167.440 
-1.31672e-05      3.97458     -144.110 
-1.31405e-05      2.81556     -114.107 
1.31183e-05      4.69720      3.17306 
-0.000100779      2.69920     -60.9660 
-5.10108e-05      2.15077      121.695 
-0.000254678      6.84265     -36.0828 
-0.000230674      7.43174     -42.4915 
0.000808463      5.29122     -115.645 
0.000101123      3.77737     -81.9343 
-7.65123e-05      1.40801     -143.374 
-6.34118e-05      3.28125      145.680 
-1.30708e-05      3.09196      177.961 
-3.90609e-05      5.09166     -60.4645 
-0.000113873      4.47921      141.800 
5.10570e-05      2.68159     -158.794 
1.30512e-05      3.00601     -142.978 
0.000114986      5.00186      131.434 
1.30392e-05      2.87759      65.5725 
0.000123583      5.84227     -37.4191 
-1.30414e-05      6.62593      50.3273 
-0.000300805      5.07847     -97.9227 
-3.88075e-05      4.54032     -140.631 
8.85051e-05      5.03746      122.681 
0.000177474      4.60428      71.6438 
1.29848e-05      1.09124     -41.2847 
6.36380e-05      2.87042     -170.374 
-2.58552e-05      3.82781     -47.0114 
0.000210002      2.39084     -100.605 
-1.29691e-05      4.39096     -4.04843 
-5.01590e-05      4.13121     -88.6130 
8.86291e-05      4.45337      151.133 
-0.000651082      4.58574     -100.428 
-5.12054e-05      4.53706     -38.1076 
-1.29614e-05      4.45929      64.3544 
1.29397e-05      2.61840     -71.2883 
-1.29364e-05      4.18667     -135.968 
-2.53032e-05      2.97417      142.514 
-3.82322e-05      4.88452     -124.406 
-0.000136239      6.62463      50.2055 
-1.29288e-05      2.98082      178.654 
7.65658e-05      4.68078     -151.409 
7.61062e-05      6.46409      128.909 
3.71192e-05      2.47631      104.261 
-1.29099e-05      5.10529     -60.4222 
-0.000241976      6.29222      32.2756 
-0.000560472      5.49295      18.1381 
-3.83698e-05      6.08205      126.644 
5.10956e-05      2.83134      163.165 
-0.000185816      5.55933      62.6975 
6.31253e-05      3.24600     -97.2564 
1.28650e-05      4.70719      3.16633 
5.07358e-05      3.52405     -36.5772 
-0.000235382      5.10036     -60.5199 
0.000173986      6.82567      47.9691 
-0.000123489      5.12508     -26.6650 
-9.77024e-05      1.35831      59.4703 
-1.28071e-05      1.65469     -97.6404 
-9.96895e-05      2.69436     -61.1519 
3.78239e-05      4.28339     -61.1013 
0.000234624      5.39366     -117.135 
-6.22268e-05      4.45028      64.2986 
-2.53269e-05      4.46213     -118.805 
-7.51567e-05      3.83513     -47.1133 
-1.27546e-05      5.30144      30.2409 
-1.27507e-05      4.69766     -118.202 
-0.000188818      2.88376      76.1565 
-0.000213989      3.42428      139.145 
-0.000170431      3.72007      38.7801 
-3.68434e-05      4.22966     -136.341 
0.000111573      4.65920     -80.1131 
1.27230e-05      5.73006     -18.3085 
-0.000451544      7.01520     -45.8086 
2.50953e-05      3.30643     -163.483 
7.43764e-05      2.79893      166.361 
-5.03904e-05      4.54805     -140.711 
4.94005e-05      2.46662      104.318 
7.41361e-05      5.31270      12.8329 
6.29270e-05      5.59151     -121.842 
-2.48036e-05      2.40853      112.199 
-0.000292869      3.01106      178.478 
0.000110558      3.53001     -36.7076 
-6.19587e-05      2.40483      133.652 
-6.26483e-05      5.58205     -126.624 
3.74528e-05      2.62162     -71.0813 
-3.65018e-05      2.98027      142.361 
-1.26348e-05      3.71856      38.9967 
1.26219e-05      1.03368     -102.288 
1.26142e-05      4.10410      98.4065 
-6.20387e-05      4.22243     -136.247 
2.50606e-05      1.21643      26.3544 
-1.25906e-05      1.65605     -97.9833 
1.25829e-05      5.42274     -11.7036 
0.000110762      2.81888      163.301 
7.39996e-05      4.51460     -129.968 
0.000286269      5.43253     -11.6822 
-0.000170010      5.24696      69.3545 
1.25191e-05      3.03295     -74.3141 
9.88172e-05      4.66722     -151.458 
-8.51355e-05      4.52919     -38.1856 
-7.36134e-05      6.07608      126.568 
-9.57798e-05      4.37293     -141.033 
1.25091e-05      7.12947     -40.3921 
8.62560e-05      4.99525      131.348 
1.24833e-05      3.01400     -143.092 
0.000156136      5.83433     -37.4788 
-5.31028e-05      3.71080      39.0939 
8.55232e-05      6.40429      26.1249 
8.49836e-05      5.06463     -19.9734 
0.000193416      4.05878     -167.333 
0.000182806      5.61057     -121.962 
-3.67693e-05      4.45732     -118.693 
4.88940e-05      3.89964     -33.2826 
-2.47040e-05      4.55580     -140.790 
4.85172e-05      6.74781     -48.9658 
1.23655e-05      2.93820     -169.608 
0.000144891      6.45782      128.840 
2.44386e-05      5.42072     -11.6001 
-4.75465e-05      4.87591     -124.049 
0.000357047      4.60114      71.7619 
-1.23545e-05      3.61610      3.32924 
0.00210630      7.38616      37.2422 
-4.91762e-05      5.59008     -126.562 
-0.000229478      6.83676     -36.0150 
0.000356224      7.66666     -38.3797 
-1.23307e-05      3.86897     -133.639 
0.000281770      5.92030      52.5494 
-2.46146e-05      6.74807     -34.0669 
-1.23180e-05      2.81149     -113.921 
8.41442e-05      5.19850     -80.0303 
-0.000407295      6.62759     -34.9849 
1.22872e-05      4.28823     -60.9843 
-6.09838e-05      4.57762     -140.851 
0.000505260      4.93001     -143.246 
1.22788e-05      2.95968     -169.487 
-2.42397e-05      4.67898     -115.305 
-5.98192e-05      6.19229     -40.4809 
9.18689e-05      6.13580      10.1378 
9.57627e-05      4.44461      151.071 
-3.65430e-05      6.34606     -37.1227 
5.97245e-05      3.31602     -163.532 
-0.00272050      5.86914      134.586 
-1.22300e-05      6.77024     -34.0421 
3.64635e-05      2.96951     -169.523 
4.79565e-05      2.67591     -158.517 
0.000164949      4.88109     -99.7904 
0.000154702      4.65365     -151.507 
-8.39035e-05      3.84194     -47.0040 
-9.42613e-05      3.29515      145.635 
3.62027e-05      4.29214     -61.1658 
-2.39672e-05      3.04243      121.287 
-0.000108515      6.79241     -34.0176 
-4.81374e-05      2.87406      76.1088 
2.42474e-05      7.13709     -40.3401 
-2.43070e-05      5.59604     -126.645 
-0.000164481      3.83214     -99.4623 
9.61171e-05      4.98959      131.100 
7.11229e-05      6.52038     -28.6876 
-0.000153954      5.60407     -126.584 
1.21014e-05      2.92262     -76.3441 
1.20930e-05      1.03942     -101.094 
-2.38237e-05      7.30274      35.3005 
4.72418e-05      3.78588     -82.1053 
0.000258540      3.51194      166.162 
-2.41125e-05      6.33205     -37.1052 
-0.000375816      5.06857     -97.9383 
1.20645e-05      1.23879      26.3582 
-2.40464e-05      6.33809     -37.1773 
-0.000119111      4.58538     -140.930 
4.78503e-05      2.97935     -169.558 
8.28934e-05      4.66905     -80.1342 
3.55134e-05      5.17818     -77.7352 
0.000734448      7.71360      39.0542 
-0.000146813      4.87032     -123.951 
5.92847e-05      3.59202     -76.3119 
-7.08303e-05      4.70619     -36.3586 
0.000287946      6.83310      48.0253 
-0.000221983      4.94143     -140.996 
4.75561e-05      5.53263     -133.096 
-5.81252e-05      7.11362     -44.6583 
0.000101036      4.70685     -107.049 
0.000116385      2.80865      166.409 
-7.06558e-05      6.07817      126.436 
-2.35494e-05      2.15928      121.555 
0.000236889      5.40713     -117.181 
-3.54469e-05      4.45253     -118.580 
2.38254e-05      2.80644      163.438 
-4.68833e-05      3.03134      178.299 
-6.98731e-05      2.42157      112.329 
0.000244861      5.61587     -122.049 
0.000105101      6.36346      39.6442 
-2.36079e-05      5.31154      30.4273 
-0.000105331      5.55475      62.7891 
4.71209e-05      3.52200     -36.8048 
-4.71159e-05      6.08227     -4.90446 
-0.000255482      6.32408     -37.1598 
3.54014e-05      4.75118      118.129 
0.000205290      5.32024      12.7040 
-0.000140605      6.81459     -33.9932 
-3.50914e-05     0.730616      87.6467 
0.000114093      3.91349     -33.3246 
-1.18696e-05      5.48984      18.0389 
-0.000127981      4.40622     -83.7460 
6.98648e-05      6.14564      10.1214 
-1.18680e-05      2.39794      133.479 
-4.62283e-05      2.70795     -61.0687 
0.000174497      4.98302      131.013 
-0.000207131      5.11399     -60.4775 
-5.82228e-05      4.58981     -93.7476 
0.000426274      5.41170     -117.275 
1.18282e-05      2.85727     -170.735 
2.35758e-05      2.79401      163.576 
-5.82813e-05      7.32822      41.1271 
0.00271878      6.45155      128.771 
3.49867e-05      4.29698     -61.0490 
-0.000311030      6.82867     -36.0644 
1.17864e-05      4.11254      98.2483 
0.000171506      2.98918     -169.592 
9.20371e-05      4.52869     -129.984 
9.26033e-05      4.67077     -80.0133 
-6.90619e-05      5.12064     -26.8153 
-0.000115353      5.33165      132.035 
3.47970e-05      6.74027     -48.9100 
-0.000136752      5.42800      36.9121 
3.51344e-05      5.53994     -133.025 
1.17546e-05      5.05128      122.715 
-2.33244e-05      4.24415     -136.528 
-0.00102193      7.00823     -45.8672 
-8.07367e-05      2.40520      133.315 
5.80579e-05      6.07224     -21.7488 
0.000297271      4.06854     -167.364 
-0.000171965      5.49935      18.0066 
-0.000139060      4.59315     -141.009 
0.000126638      4.43587      151.008 
-5.80743e-05      3.71228      38.8767 
3.49409e-05      4.20353     -24.0040 
1.16926e-05      2.78160      163.715 
5.77475e-05      5.68096     -122.711 
4.58364e-05      2.47386      104.036 
0.000125028      5.38744     -137.784 
-3.47142e-05      2.71280     -60.8839 
2.32641e-05      2.76921      163.856 
6.92142e-05      3.60411     -76.1951 
0.000113082      2.67918      30.0101 
-1.16424e-05      4.44595      64.4148 
-4.59415e-05      3.84877     -46.8951 
-6.77358e-05      2.97236      142.243 
5.72475e-05      6.40870      26.2052 
-4.57039e-05      4.52134     -38.2640 
0.000202825      5.53312     -132.949 
-0.000123474      1.36191      60.0464 
0.000125504      4.64010     -151.557 
9.17217e-05      4.07044      164.905 
0.000410485      6.35576      39.7017 
5.73931e-05      5.45271     -123.632 
0.000774877      4.59802      71.8803 
-0.000193019      5.61210     -126.523 
0.000402927      4.20761     -24.1284 
0.000146443      3.86021      179.406 
0.000169243      2.75683      163.998 
-0.000102236      4.70027     -36.2604 
2.30355e-05      3.16659      16.8899 
-4.53121e-05      4.44775     -118.467 
1.15342e-05      2.67030     -158.238 
2.28688e-05      2.85568     -170.933 
1.15073e-05      6.65398      24.6007 
-6.79892e-05      6.07224      126.360 
-6.77849e-05      6.71202     -34.0689 
1.15031e-05      5.94378     -123.262 
0.000133880      5.18585     -77.8667 
-3.41356e-05      6.18469     -40.5410 
0.000301684      5.64564     -122.339 
1.14876e-05      3.52800     -36.9349 
-1.14885e-05      5.31662      30.5202 
3.41930e-05      6.52915     -28.6455 
-8.86237e-05      6.63103      50.1391 
-7.86967e-05      6.08142     -4.81059 
-0.000134631      3.71381      38.6598 
0.000112235      3.14391      157.759 
0.000589863      7.68071     -38.3919 
-0.000433332      4.59739     -100.528 
-2.25271e-05      6.83676     -33.9690 
-0.000268212      5.56364      62.8362 
0.000101577      5.26104     -103.297 
-4.52735e-05      4.00412     -28.1651 
6.80540e-05      5.93830     -123.182 
-0.000192151      4.61499     -141.069 
4.50699e-05      3.52001     -37.0327 
-0.000157207      6.82847     -34.0159 
-0.000247165      4.93514     -141.086 
5.66129e-05      3.15702      16.9426 
7.82659e-05      2.40252     -100.795 
0.000521639      3.50223      166.122 
5.60169e-05      5.20024     -79.9218 
-0.000533479      5.06996     -98.0502 
0.000267208      7.10136     -32.6383 
-1.14281e-05      6.34225     -52.6242 
-5.65487e-05      7.33576      41.0757 
-4.51903e-05      3.88254     -134.061 
0.000157556      4.97646      130.926 
-0.000156875      4.40732     -83.6167 
0.000243342      6.08153     -21.7139 
-0.000157275      6.34832     -52.5525 
-7.82564e-05      4.36516     -140.951 
0.000199787      4.67890     -80.1552 
-2.24887e-05      1.40918      103.543 
0.000176960      5.22093     -71.4609 
5.62436e-05      1.79011     -61.2874 
0.000111917      5.46103     -123.574 
1.13452e-05      3.32561     -163.581 
0.000179049      4.42712      150.945 
0.000122179      5.44233     -11.6609 
-6.69275e-05      5.32496      131.955 
0.00631831      7.70584      39.1011 
-4.46934e-05      4.04857      110.987 
6.71054e-05      3.60651     -76.0408 
7.82061e-05      6.73274     -48.8541 
-0.000233369      6.31611     -37.2146 
-0.000144123      3.82228     -99.4870 
-3.37018e-05      3.28690      145.536 
1.13040e-05      2.66101     -158.159 
8.92467e-05      4.08010      164.942 
-2.25263e-05      3.35538      3.24613 
4.48150e-05      4.97101     -1.15268 
-1.12798e-05      3.84832     -46.6847 
2.24453e-05      5.05523     -92.6077 
-0.000255345      6.82059     -36.1138 
-0.000154982      6.25979     -31.2777 
1.12596e-05      4.92699      122.400 
-3.35853e-05      2.43463      112.457 
2.24157e-05      4.88280     -99.9060 
-4.47108e-05      5.23408      69.4183 
6.66539e-05      2.81837      166.457 
2.24298e-05      6.52436     -28.5684 
6.59389e-05      7.11537     -40.3829 
0.000561118      6.24059      11.7421 
2.23219e-05      2.99902     -169.627 
0.000122428      4.63131     -151.498 
-0.000400235      4.59557     -100.405 
6.67445e-05      6.38661      130.173 
3.35208e-05      5.93283     -123.101 
-7.78208e-05      3.85519     -46.5765 
-4.43839e-05      2.39835      133.141 
-7.76269e-05      3.34540      3.25583 
-0.000132956      5.63011     -128.437 
0.000221835      6.41767      26.1658 
4.44918e-05      3.14746      16.9957 
-1.11794e-05      5.43828     -3.16230 
-0.000221514      4.62277     -141.147 
1.11777e-05      4.07541      168.249 
-3.33809e-05      7.34330      41.0244 
0.000220153      4.62888      152.881 
-0.000132499      4.65021     -68.9536 
1.11494e-05      2.84424     -171.101 
0.000231333      4.07830     -167.395 
-4.40662e-05      6.27842      32.2472 
-5.50100e-05      4.69221     -36.3326 
2.22200e-05      5.93432      52.5315 
0.000365536      5.41629     -117.369 
0.000991580      6.12074     -12.7420 
6.62533e-05      4.05380      168.330 
5.51443e-05      6.51558     -28.6105 
-2.21114e-05      3.88950     -134.167 
-1.11146e-05      5.60365      116.839 
1.11112e-05      4.97081     -1.03744 
1.11042e-05      5.44259      26.5180 
-1.11125e-05      4.51349     -38.3426 
0.000153763      6.05706     -10.2710 
5.66077e-05      5.37939     -137.562 
-2.21055e-05      6.72591     -34.0917 
1.10991e-05      5.91899     -123.073 
0.000132240      4.96992      130.839 
-9.91639e-05      5.59021      116.794 
0.000109845      5.25875     -103.191 
-3.31636e-05      2.38365      116.673 
0.000210150      1.78533     -61.5688 
-5.49791e-05      6.07438      126.228 
-2.20573e-05      4.44299     -118.353 
0.000197521      5.44706      26.6121 
-9.87763e-05      2.96446      142.125 
-0.000110113      6.35441     -52.4809 
3.30537e-05      5.34607     -37.1700 
0.000164536      6.90119      31.2485 
2.20927e-05      2.85260     -171.330 
8.81420e-05      4.41838      150.882 
-2.21187e-05      7.10651     -44.7149 
9.87438e-05      3.44569     -82.9987 
1.10518e-05      4.62654     -151.607 
-2.20197e-05      5.23057      69.5209 
-0.000372414      6.85064     -33.9916 
-4.39185e-05      5.43774     -3.05709 
-2.20378e-05      3.99941     -28.0388 
-0.000570612      7.00106     -45.8102 
-1.10391e-05      3.30080      145.491 
0.00224438      5.47123      138.853 
-0.000109608      6.62186     -34.9140 
-1.10404e-05      1.39270      102.440 
-2.20297e-05      4.51515     -38.1644 
-8.78496e-05      4.40845     -83.4876 
4.39313e-05      3.13790      17.0490 
1.10266e-05      6.18328      9.96504 
0.000142432      6.84054      48.0813 
0.000164862      5.37201     -137.490 
-4.40131e-05      3.86207     -46.4688 
0.000252067      6.44529      128.701 
2.19786e-05      6.49192     -24.8676 
0.000142436      4.61775     -151.548 
3.29423e-05      5.20200     -79.8134 
2.19929e-05      2.75960      163.798 
1.09990e-05      2.98117     -169.369 
-1.10023e-05      2.09124      49.0718 
4.38799e-05      2.85110     -171.529 
-3.28984e-05      7.35084      40.9733 
7.67049e-05      4.08976      164.978 
-0.000109518      3.37291     -134.880 
0.000153243      6.72521     -48.7980 
-9.87214e-05      4.95581      139.173 
-0.000297345      2.37918      116.457 
4.38732e-05      2.79432     -142.269 
0.000286259      6.37897      130.231 
-8.77506e-05      4.63683     -141.128 
2.19112e-05      4.96082     -1.03953 
1.09928e-05      3.51808     -37.2608 
-5.47636e-05      4.58917     -93.6231 
1.09866e-05      6.19313      9.94903 
6.57534e-05      2.82809      166.504 
0.000719073      4.92200     -143.177 
2.19245e-05      5.92068     -35.9989 
-0.000158741      5.62014     -126.462 
-3.28897e-05      2.39153      132.967 
-0.000395257      5.63633     -128.517 
-0.000624945      5.00289     -88.0527 
0.000220875      5.67556     -122.626 
-0.000120396      3.33542      3.26559 
0.000120417      5.67018     -122.541 
2.19318e-05      6.34807      39.7593 
-2.19139e-05      5.14646     -7.70500 
5.47234e-05      6.20298      9.93307 
2.19221e-05      4.42326      150.769 
-0.000218841      6.81252     -36.1634 
1.09625e-05      4.54277     -129.999 
2.19018e-05      2.97135     -169.333 
-2.19264e-05      3.86174     -46.2590 
0.000153227      3.86012      179.555 
2.19120e-05      5.90699     -52.0825 
7.66153e-05      5.52631     -132.873 
-1.09607e-05      5.52603      127.057 
1.09623e-05      2.77200      163.657 
1.09534e-05      3.14014      157.928 
-0.000164104      6.36234     -52.5357 
0.000131269      5.07000     -134.760 
0.000186252      7.09597     -32.5703 
8.75448e-05      4.40965      150.819 
-0.000382888      4.64462     -141.205 
-0.000411815      3.86866     -46.1520 
-3.28340e-05      6.61366     -34.9636 
-7.65814e-05      2.91239     -66.9564 
1.09443e-05      3.33768      48.7656 
0.000208140      5.92102     -52.0656 
-9.84261e-05      4.64663     -69.0687 
-1.09508e-05      1.34495      98.5518 
-8.74819e-05      6.32217     -37.2868 
-2.18846e-05      5.58571      116.703 
3.28190e-05      5.20378     -79.7050 
-1.09431e-05      5.65199     -51.6093 
2.18822e-05      2.78029     -142.306 
0.000229704      7.37214      37.2274 
1.09370e-05      4.69729     -107.085 
-1.09387e-05      3.70601      38.7564 
1.09351e-05      7.21668     -41.7984 
-0.00328265      5.06006     -98.0660 
-6.56121e-05      4.59378     -100.283 
-2.18642e-05      7.35840      40.9222 
9.84697e-05      5.19146     -78.1057 
-0.000703300      4.94825      139.097 
3.27922e-05      3.34428      48.6368 
6.56007e-05      4.70023     -107.201 
9.84921e-05      2.80223     -142.394 
3.27910e-05      4.04199      168.440 
2.18672e-05      2.78442      163.518 
1.09481e-05      2.82577      166.701 
-1.09355e-05      5.44772     -3.05148 
-0.000154186      5.64416     -51.5463 
-3.27925e-05      2.39885      132.804 
-3.27925e-05      4.53097     -103.269 
-1.09302e-05      4.35886     -141.053 
-1.09319e-05      5.55908      62.9279 
3.27911e-05      4.96339      130.752 
1.09336e-05      5.35405     -37.1053 
0.000208714      4.21171     -24.2526 
3.27943e-05      2.84965     -171.728 
3.28393e-05      5.45212     -11.6397 
4.37416e-05      2.40441     -101.030 
5.48002e-05      2.67556      30.3027 
-4.37865e-05      4.40959     -83.3585 
-7.65784e-05      5.44720     -2.94645 
8.82053e-05      4.96729      137.121 
-1.09391e-05      6.26997      32.2960 
-0.000132341      4.67823     -36.3065 
0.000153173      6.84723      48.0190 
0.000219359      4.08806     -167.426 
7.67004e-05      2.83551      166.748 
-1.09285e-05      3.99472     -27.9122 
-5.46907e-05      5.57229      116.657 
-5.50119e-05      6.06848      126.152 
0.000154580      6.15761      8.49856 
-5.47084e-05      7.36596      40.8713 
-2.18700e-05      5.15637     -7.69010 
8.74653e-05      4.40092      150.756 
-2.18704e-05      1.34350      98.1301 
0.000486663      6.22013      131.481 
2.18665e-05      3.94038      162.117 
3.28310e-05      1.04393     -99.3721 
-1.09236e-05      6.26463      32.2187 
-0.000216769      3.70450      38.9738 
-1.09372e-05      4.59979     -93.7395 
0.000335933      6.05529     -10.1779 
9.88743e-05      7.10776     -40.4352 
9.91973e-05      3.33678      48.5233 
4.38310e-05      4.09941      165.015 
0.000197216      5.67952      131.860 
0.000519011      7.08755     -32.6138 
-7.68165e-05      5.78275      23.3287 
-0.000154654      6.99409     -45.8689 
0.000807661      5.07705     -134.840 
-3.28126e-05      5.56345      63.0665 
0.000225528      4.93207     -52.8281 
-0.000593402      5.87627      134.517 
0.000120604      5.42089     -117.463 
-2.18649e-05      3.82394     -99.6348 
2.18701e-05      4.69068     -107.237 
4.37872e-05      4.68875     -80.1761 
3.28200e-05      4.60419     -151.598 
0.000177461      3.44693     -82.8337 
3.28236e-05      5.00685     -107.313 
-6.58377e-05      3.32543      3.27540 
-5.48824e-05      1.33222      97.7652 
3.28593e-05      2.78727      163.320 
0.000359017      6.71110     -48.8060 
3.28680e-05      5.20557     -79.5967 
-4.38956e-05      6.25461     -31.1994 
-0.000334463      3.87559     -46.0454 
5.48489e-05      2.84823     -171.927 
-2.18852e-05      4.63729     -69.0246 
7.69932e-05      4.97097      130.676 
0.000154899      7.67287     -38.4382 
1.09410e-05      5.36008     -37.1906 
-2.19028e-05      5.33191      30.7979 
-2.19469e-05      4.59915     -93.6152 
-0.000752377      6.36843     -52.4643 
4.38172e-05      6.01931     -15.5139 
0.00164365      7.36418      37.2745 
-4.38944e-05      5.53206      127.139 
-4.39325e-05      6.25617      32.2675 
0.000132177      5.45155      26.7061 
-2.18842e-05      6.32823     -37.3588 
-0.000349576      4.75232     -112.518 
3.30213e-05      4.98952     -110.287 
-3.29926e-05      6.71763     -34.1395 
6.58572e-05      4.59540     -151.539 
0.000225265      5.00388     -107.204 
-1.09506e-05      3.36595     -134.519 
-3.29350e-05      2.95833      142.278 
0.000404665      6.09082     -21.6791 
7.70376e-05      4.66503     -107.464 
-0.000165316      6.32029     -37.4138 
0.000143318      4.39220      150.692 
-2.19411e-05      3.81241     -99.5117 
3.29270e-05      4.61832     -46.1405 
5.49295e-05      6.14772      8.51233 
0.00112328      7.66609     -37.1539 
-0.000906359      6.80445     -36.2131 
0.000688981      6.43749      128.757 
-5.49821e-05      6.09509     -132.274 
-5.53490e-05      6.85894     -33.9449 
0.000378070      6.85466      48.0749 
-0.000176410      4.65242     -141.282 
8.87401e-05      1.77409      53.7114 
-1.09791e-05      4.87305     -123.788 
-4.40774e-05      3.35894     -134.397 
1.09742e-05      3.49252      166.083 
-0.000239952      4.63372     -69.1400 
-0.000134585      5.45719     -2.94105 
-1.09773e-05      2.39207      132.628 
4.40191e-05      6.00968     -15.5394 
0.000133472      3.87012      179.556 
-2.19854e-05      5.29483     -8.25253 
0.000121673      4.61112     -46.0544 
-0.000188184      6.87282     -33.9675 
-0.000101033      2.90713     -66.6979 
4.41696e-05      4.10908      165.051 
-3.30888e-05      7.37352      40.8204 
7.74111e-05      6.21264      131.542 
2.20249e-05      1.04235     -98.8297 
-0.000122168      3.75800     -66.6413 
0.000643251      3.49984      166.281 
0.000289380      5.67877      132.002 
3.31413e-05      5.19717     -78.3441 
2.20382e-05      2.81016     -142.518 
0.000112287      2.91055     -76.4890 
0.000122180      4.58184     -151.589 
0.000360175      5.08410     -134.920 
5.54018e-05      5.20739     -79.4885 
0.000798807      6.24264      11.8319 
2.26674e-05      3.95297      162.023 
0.00140432      5.85932     -130.432 
2.20973e-05      2.79973      163.183 
-0.000159667      5.53810      127.222 
-6.67088e-05      4.79671     -94.7835 
0.000319995      5.92717     -51.9894 
9.10575e-05      6.90974      31.2055 
-6.65457e-05      6.08769     -132.337 
-1.10444e-05      5.56781      116.565 
6.70017e-05      2.84684     -172.126 
-0.000144818      6.22108     -14.2373 
0.000123442      5.42977     -117.415 
1.10593e-05      4.03020      168.551 
-0.00166018      5.01288     -88.0566 
-6.69435e-05      6.24238      32.2389 
2.21807e-05      6.00700     -15.4475 
0.000134748      4.09782     -167.456 
1.10986e-05      4.65549     -107.501 
0.000448122      3.37930      15.2700 
-0.000771025      4.65868     -141.187 
-4.95329e-05      5.28350     -8.16077 
-4.46347e-05      7.38109      40.7697 
0.000419025      4.65851     -107.618 
-2.23868e-05      3.32602      3.44739 
6.74787e-05      2.79016      163.124 
-0.000213691      6.32637     -37.4858 
7.92710e-05      1.03247     -98.9149 
0.000146381      4.38348      150.628 
-2.22940e-05      3.35216     -134.033 
7.90118e-05      5.99737     -15.4730 
0.000453380      7.10015     -40.4875 
5.83137e-05      5.62648      2.75053 
4.49661e-05      4.11874      165.087 
2.23365e-05      5.46049      26.6589 
-5.88070e-05      3.02106      178.483 
-0.000670744      6.09443     -132.406 
-0.000331992      5.64256     -128.596 
0.000216549      4.60418     -46.1440 
0.000345429      6.14625      8.42014 
2.24202e-05      5.19516     -78.4521 
-0.000172043      5.01255     -88.1708 
-4.52776e-05      6.72324     -34.2101 
-0.00127704      6.88111     -33.9210 
-0.000126172      3.22622     -67.0113 
-1.11944e-05      1.32098      97.3940 
3.38820e-05      4.96445      130.589 
4.51497e-05      5.20922     -79.3803 
0.000472421      3.91675     -169.407 
0.000182628      5.46498      26.7526 
-0.000208037      4.79755     -94.9025 
2.25419e-05      5.47373     -11.7000 
-5.66712e-05      3.34522     -133.910 
0.000147768      4.57305     -151.530 
0.000466795      6.37134      130.289 
-0.000807325      4.66648     -141.263 
3.40613e-05      6.27747      41.3834 
-0.000466736      6.21138     -14.2600 
0.000290948      5.00093     -107.094 
-0.000308700      3.77115     -66.5620 
5.71488e-05      5.61649      2.75542 
-1.12680e-05      5.79193      23.2895 
0.00143646      7.08216     -32.5457 
0.000379242      5.68546      132.077 
7.25658e-05      3.32929      48.4093 
0.000223970      4.97463      137.199 
-3.40126e-05      7.38867      40.7190 
-3.42081e-05      6.65153      50.0621 
-0.000102753      6.22859      32.2101 
0.000362122      5.20100     -78.6901 
0.000609233      6.86135      48.0128 
-2.27186e-05      4.67017     -36.3792 
0.00120843      4.91400     -143.107 
-5.73780e-05      2.39259      116.565 
9.27870e-05      3.87005      179.704 
6.93130e-05      1.76819      53.9726 
0.000131524      7.67910     -38.4967 
-1.13683e-05      5.29340     -8.14541 
4.59714e-05      2.84549     -172.326 
-0.000127708      3.39706      10.5160 
2.30307e-05      4.21674     -24.0729 
-0.000131770      2.17635      121.280 
-0.000126339      6.31843     -37.5409 
4.59938e-05      4.12840      165.122 
5.75673e-05      4.83355     -79.9920 
0.000196126      6.13049     -12.7214 
0.000201798      4.10758     -167.486 
1.14402e-05      4.01842      168.662 
-5.77393e-05      7.39733      40.5593 
4.60440e-05      4.37477      150.564 
1.14863e-05      4.84167     -80.1291 
-5.85115e-05      5.48345      18.1706 
-3.53670e-05      3.31604      3.45778 
5.97491e-05      3.44819     -82.6689 
-8.19458e-05      5.74314      117.591 
0.000827199      4.52866     -155.472 
-1.15097e-05      3.33829     -133.786 
-6.98301e-05      4.65619     -36.3531 
1.15264e-05      5.12864     -101.814 
9.58973e-05      5.69478     -122.741 
-1.15616e-05      3.80255     -99.5366 
-2.32617e-05      6.71498     -34.2580 
1.15589e-05      1.77654     -61.4153 
0.000285822      5.12660     -101.704 
0.000344904      4.55950     -151.580 
7.14544e-05      2.79308      162.927 
-3.48817e-05      3.33862     -133.544 
-4.81043e-05      6.65796      49.9961 
0.000194449      2.65819     -50.8016 
-4.66190e-05      6.22013      32.2592 
-0.000836828      6.32453     -37.6128 
5.83970e-05      4.37100      150.385 
3.54366e-05      2.90823     -76.6805 
0.000133921      4.79004      3.71064 
-0.00111973      7.00127     -45.9259 
0.000432183      4.83530     -79.8753 
0.000302478      4.16789      171.306 
-0.000593093      4.94070      139.021 
-0.000353262      4.24436      77.8958 
0.000266108      6.10012     -21.6444 
-8.25576e-05      7.40493      40.5090 
0.000132805      1.03097     -98.3659 
0.000177208      6.13270     -12.8125 
-0.000121699      2.90319     -66.8792 
-0.000120889      5.46717     -2.93567 
5.95717e-05      4.13807      165.158 
0.000426638      6.79976     -41.6615 
0.000376692      6.70358     -48.7498 
0.000142803      5.06996     -134.920 
-0.000109939      4.86474     -123.853 
0.000639207      6.41954      21.5694 
0.000592102      5.69217      132.152 
-7.15676e-05      6.21480      32.1813 
0.000160058      5.76236     -61.8339 
0.000214221      6.05353     -10.0847 
0.000122292      4.59726     -46.2339 
1.17998e-05      4.84340     -80.0126 
-3.56569e-05      3.33174     -133.419 
1.17950e-05      5.39449     -110.283 
1.18114e-05      3.96558      161.931 
2.40860e-05      6.41327      26.0856 
1.18139e-05      5.47391      26.7055 
1.18481e-05      2.65189     -50.9690 
-0.000358170      5.64881     -128.676 
-0.000680070      4.28215     -158.348 
7.19863e-05      4.36230      150.320 
-1.18654e-05      2.39708      116.779 
-0.000453803      7.73607      40.0711 
-6.02505e-05      4.64814     -36.4261 
-0.000158940      7.03864     -31.5222 
-0.000188142      4.75615     -112.629 
7.29410e-05      5.47841      26.7989 
-0.000354408      5.54416      127.304 
6.04510e-05      6.13636      8.43381 
-0.000145022      3.23014     -66.8480 
0.000152780      5.93334     -51.9133 
1.20341e-05      2.83558     -172.299 
5.04116e-05      3.23446      102.317 
-8.69173e-05      4.53560     -103.515 
-4.92745e-05      5.74778      117.680 
0.000874972      6.12295     -12.8333 
-8.58836e-05      7.41254      40.4588 
7.41540e-05      7.22320      39.0438 
-7.38574e-05      3.32488     -133.294 
8.93353e-05      4.93016     -52.6652 
-7.63466e-05      3.38723      10.5469 
4.97936e-05      3.27452     -97.0165 
0.000189685      5.01049     -107.061 
0.000340383      5.63600      2.64411 
-3.69248e-05      6.95753      39.8688 
0.000113283      4.14773      165.193 
-4.95038e-05      4.82902     -57.0010 
-0.000103346      4.80838     -95.0110 
0.000200812      6.13490      8.34143 
8.70392e-05      4.34992      150.075 
-0.000779782      6.20893     -14.1705 
2.45524e-05      4.98876      137.193 
-7.53382e-05      6.20634      32.2305 
4.99925e-05      4.59164      71.7229 
0.000303037      6.86878      48.0686 
-0.000206185      4.64010     -36.4995 
0.000266008      5.76632     -2.68378 
-0.000426012      6.37453     -52.3930 
0.000290076      4.99610      137.271 
-5.08257e-05      5.93742      5.50895 
0.000361581      5.12458     -101.595 
7.68981e-05      3.59017      83.9242 
0.000418879      4.66804     -107.581 
-0.000141451      5.20525      139.363 
2.50872e-05      2.78352      162.867 
-0.000910078      6.10118     -132.476 
-1.24912e-05      4.90902     -39.4619 
-0.000131552      6.96521      39.8161 
2.51216e-05      3.68307     -175.172 
1.25295e-05      2.84417     -172.525 
-0.000103074      7.42015      40.4087 
7.93752e-05      4.11734     -167.516 
0.000132317      1.02956     -97.8153 
1.25875e-05      5.51951     -132.797 
-5.19919e-05      4.82063     -56.9363 
-1.26141e-05      3.31666      3.63021 
-0.000548977      7.04716     -31.4797 
-2.55357e-05      3.31803     -133.168 
-0.00107215      7.72198      40.0621 
5.14964e-05      3.68224     -175.327 
0.000383442      6.10941     -21.6098 
-0.000219735      4.63017     -69.2557 
0.000592648      6.42322      21.6523 
-0.000107361      6.08293      122.854 
0.00104911      5.74199      135.564 
-0.000870833      5.13720     -94.6895 
0.000257157      5.94121     -51.9728 
9.18709e-05      5.48734      26.7518 
-1.27390e-05      2.79315      134.565 
0.000133342      7.23726      39.0555 
1.28157e-05      3.27332     -96.8428 
1.28191e-05      4.33761      149.829 
9.41799e-05      4.39714      100.748 
-2.60459e-05      2.79251     -61.3240 
3.94928e-05      3.23660      102.490 
0.000654186      6.87547      48.0066 
-0.000189498      5.27758     -75.9638 
-0.000321934      6.66439      49.9302 
-0.000490356      5.65506     -128.755 
-9.33593e-05      2.80029      134.421 
0.000250414      5.01343     -107.170 
3.93356e-05      4.32897      149.763 
-5.32293e-05      5.14752      116.913 
0.000160810      6.12501      8.35500 
0.000444192      6.44376      128.826 
-0.000121848      3.24181     -168.794 
-3.95025e-05      5.28209     -8.05340 
6.86460e-05      6.10184     -3.57048 
-5.32874e-05      6.20101      32.1523 
-8.17304e-05      5.54995     -65.7440 
0.000534470      5.69889      132.226 
8.21858e-05      5.75355     -61.7869 
-9.70980e-05      5.14149      136.024 
0.000208943      5.40256     -117.087 
0.000169097      4.15740      165.228 
0.000208038      5.82862     -129.151 
0.000127944      5.20693     -78.9274 
-2.69784e-05      2.41506      117.096 
1.33010e-05      6.86804      47.9508 
-4.10665e-05      5.92747      5.51823 
8.26834e-05      3.67227     -175.314 
0.000677181      4.90601     -143.037 
-1.33663e-05      4.41082     -32.5011 
0.000253753      6.79230     -41.7176 
-1.34081e-05      2.18490      121.144 
0.000112080      4.31677      149.514 
-6.98703e-05      2.80608     -61.2429 
-0.000194732      4.93315      138.945 
0.000213307      5.43953      130.601 
-9.72623e-05      5.33339      14.2186 
-1.34773e-05      7.42777      40.3587 
0.000125948      5.06395     -92.2635 
0.000112946      7.68532     -38.5550 
1.35289e-05      3.60011      83.9410 
0.000298000      7.66006     -37.0943 
0.000170220      5.49185      26.8450 
0.000242162      7.86659     -39.8429 
2.76724e-05      4.97668     -110.219 
-9.97973e-05      3.37925      10.7446 
-0.000156188      6.36423      29.6667 
2.74363e-05      4.56829     -151.640 
0.00112290      7.69808      39.1480 
0.000285394      5.12258     -101.485 
-7.07780e-05      4.40239     -32.5710 
0.000141296      5.20886     -78.8195 
7.09486e-05      7.93958      39.6855 
2.77529e-05      2.60250      99.0642 
4.20353e-05      5.07829     -114.799 
-4.19762e-05      7.42892      40.2499 
5.67577e-05      3.24423      102.280 
-0.000404935      5.02255     -88.1745 
-4.23935e-05      5.21284      139.434 
-1.39062e-05      4.76001     -112.740 
-1.39598e-05      6.19254      32.2015 
-7.21094e-05      4.63206     -36.5730 
9.96558e-05      6.12356      8.26243 
-5.75633e-05      5.27219     -8.06863 
4.34076e-05      3.33594      48.2809 
-7.26122e-05      5.13861      116.964 
2.84093e-05      3.59907      84.0993 
-7.19860e-05     0.867640     -64.0256 
0.000159707      5.86581     -130.506 
-8.70449e-05      5.58605      124.202 
0.000247740      7.06835     -32.5209 
0.000131101      4.52452     -155.587 
4.36260e-05      6.69699     -48.8141 
-4.31338e-05      5.18941      28.0465 
-7.23741e-05      5.10710     -71.7424 
-7.29454e-05      5.55407     -65.6500 
-0.000131580      6.31661     -37.6681 
0.000189644      7.39412      37.1954 
-1.43228e-05      4.68670     -98.0955 
-1.43491e-05      4.76923     -112.694 
0.000102666      6.82948     -27.2779 
-2.90701e-05      4.85918     -123.755 
5.84436e-05      5.74826     -117.902 
-0.000146965      5.71265      3.81408 
-4.40405e-05      3.23200     -168.760 
-0.000103033      4.69661     -98.0783 
2.91945e-05      5.07410     -114.696 
-0.000176372      5.65354     -128.897 
-1.44492e-05      2.80729      134.567 
-0.000117543      4.93973      138.858 
5.88428e-05      5.18015     -142.688 
-5.88240e-05      5.27516     -76.0691 
-7.36710e-05      5.33094      14.1144 
1.45418e-05      5.97277     -15.3393 
4.41724e-05      5.06357     -92.1504 
7.37229e-05      5.82231     -129.075 
5.91180e-05      6.11367      8.27589 
2.95339e-05      6.17778      48.5436 
2.94476e-05      3.66231     -175.301 
2.94839e-05      3.38195      15.4334 
2.96362e-05      4.60576      103.946 
4.46133e-05      6.16456     -131.317 
-2.97310e-05      6.38245     -52.4478 
1.48439e-05      5.97013     -15.2467 
-1.48407e-05      3.87587     -46.2545 
-1.48798e-05      5.35412      2.24784 
-1.49015e-05      5.18472      27.9490 
1.49296e-05      6.47883     -127.790 
