! Center RA: 13 10 28.66385,  Dec: +32 20 43.78277 (2000.0)
! Established model.
! Flux (Jy) Radius (mas)  Theta (deg)  Major (mas)  Axial ratio   Phi (deg) T \
! Freq (Hz)     SpecIndex
 0.0287456    0.0223605      116.565 
 0.0610478     0.322490     -60.2551 
  0.133725   0.00999997      90.0000 
 0.0356431    0.0141421      135.000 
  0.185935     0.308869     -60.9454 
 0.0708365      0.00000      0.00000 
 0.0640531     0.295296     -61.6992 
0.00788567    0.0141421     -45.0000 
 0.0821374    0.0360555     -56.3097 
0.00511997    0.0316229      108.435 
0.00933090    0.0447214      116.565 
 0.0309443    0.0538513      111.801 
 0.0830954     0.281780     -62.5256 
0.00262451     0.336155     -59.6209 
0.00126176     0.349857     -59.0362 
 0.0202060     0.363593     -58.4957 
 0.0153453    0.0509900      101.310 
 0.0252928     0.368917     -57.1715 
 0.0171338    0.0316230     -71.5653 
0.00840567    0.0499998      90.0000 
0.00642903    0.0300001     -90.0000 
0.00571643    0.0509900      78.6901 
0.00359785    0.0316230     -108.435 
0.00459887    0.0538517      68.1987 
0.00255098    0.0360556     -123.690 
0.00202437    0.0424264     -135.000 
0.00426263    0.0583096      59.0362 
0.00160216    0.0500000     -143.130 
 0.0136834    0.0583095     -149.036 
0.00454835     0.374433     -55.8855 
0.00478777    0.0640312      51.3403 
0.00451907    0.0707106      44.9999 
0.00325508     0.380132     -54.6375 
0.00192192    0.0781025      39.8056 
 0.0429024     0.139284     -68.9625 
 0.0166356     0.136015     -72.8973 
0.000572900     0.143178     -77.9052 
0.000280932     0.152643     -58.3925 
0.000820566     0.141421     -81.8699 
0.000275902     0.158114     -55.3048 
0.000271099     0.164012     -52.4314 
0.000528597     0.170294     -49.7636 
0.00103278     0.140357     -85.9143 
0.00750122     0.169706     -45.0000 
0.000973437     0.140000     -90.0000 
0.00376312     0.140357     -94.0856 
0.00106116     0.150333     -93.8141 
 0.0124793     0.170294     -93.3664 
0.00574385     0.162788     -42.5104 
0.00568768     0.156205     -39.8056 
 0.0136377     0.444185     -58.8150 
0.00788094     0.449444     -57.7244 
0.00456453     0.435660     -58.1340 
0.00304133     0.470106     -51.9112 
0.000421760     0.439090     -59.9314 
0.000467993     0.434166     -61.0736 
0.000570538     0.429418     -62.2415 
0.000652947     0.424853     -63.4349 
0.000763727     0.420476     -64.6538 
0.00458602     0.398246     -61.5044 
0.00415776     0.411825     -60.9454 
0.00192454     0.403113     -60.2551 
0.00296326     0.454533     -50.3558 
0.000675416     0.407063     -62.1759 
0.00316366     0.402492     -63.4349 
0.00261382     0.398121     -64.7223 
0.000997953     0.407185     -65.3231 
0.000467604     0.416293     -65.8978 
0.00506946    0.0854398      69.4440 
0.00376965    0.0905538      83.6597 
 0.0125813     0.389102     -64.0935 
0.00708620    0.0921952      77.4711 
0.000249997    0.0894427      63.4349 
0.00142913     0.328938     -70.4633 
0.000151046     0.411461     -64.0577 
0.00271246     0.764853     -64.4400 
0.00126835     0.769220     -63.7681 
9.65973e-05     0.746726     -69.6236 
0.000280184     0.743303     -70.3462 
0.000183763     0.773692     -63.1038 
0.000179545     0.740000     -71.0754 
0.000265241     0.778267     -62.4472 
0.000343369     0.736817     -71.8110 
0.00662305     0.336155     -67.2490 
0.000335234     0.782943     -61.7984 
0.00667265     0.733757     -72.5528 
0.000391954     0.787718     -61.1573 
7.50437e-05     0.792591     -60.5241 
0.000498657     0.783901     -60.1645 
0.000697881     0.788923     -59.5345 
0.000809735     0.794040     -58.9125 
0.000836392     0.799250     -58.2986 
0.000881872     0.804550     -57.6927 
0.00168225     0.809938     -57.0948 
 0.0123432     0.296142     -78.3106 
0.00171178     0.108167     -123.690 
0.00399388     0.640703     -55.8139 
0.000928836     0.764788     -62.7649 
0.00280338     0.102956     -119.055 
0.000222738     0.294279     -80.2176 
0.000240084     0.394462     -59.5345 
0.000158823     0.760263     -63.4349 
0.00170551     0.280179     -87.9546 
0.00248672     0.399625     -58.2986 
0.000387489     0.724224     -72.3156 
0.00117698     0.404969     -57.0948 
0.000352291     0.769415     -62.1027 
0.00107013    0.0900001      90.0000 
0.000521928     0.774145     -61.4486 
0.000468476     0.743303     -72.7839 
0.000253811     0.778974     -60.8025 
0.00752754     0.298329     -76.4296 
 0.0149804    0.0984886     -113.962 
0.00307104     0.281603     -83.8845 
0.000384719     0.280713     -85.9144 
0.00606229     0.278927     -104.534 
0.00102405     0.391152     -57.5288 
0.00143919     0.382753     -56.7251 
0.00431457     0.313209     -73.3008 
0.00103363     0.393573     -62.7839 
3.67353e-05     0.276586     -102.529 
8.64550e-05     0.408167     -59.0362 
0.000952217     0.429535     -65.2249 
0.00121862    0.0943399     -122.005 
0.00826254    0.0894426     -116.565 
0.00721685     0.384838     -65.4328 
0.00317021     0.269258     -105.068 
0.000387861    0.0948684     -108.435 
 0.0114739     0.358469     -67.0113 
0.00247365     0.425441     -66.4477 
0.00211724     0.341760     -69.4440 
0.00252517     0.310483     -75.0686 
 0.0114817    0.0854399     -110.556 
 0.0138294     0.354683     -68.4986 
 0.0160603    0.0824621     -104.036 
0.00676402    0.0806225     -97.1250 
0.00655359     0.617738     -60.9454 
0.000562673     0.653070     -64.6121 
3.56670e-05     0.609016     -60.4885 
0.00239536     0.648845     -65.4099 
0.000130300     0.614003     -59.6764 
0.00611171     0.644050     -53.8418 
0.00206426     0.644748     -66.2180 
0.00197778     0.636003     -53.3103 
0.00288262     0.640781     -67.0362 
0.00166678     0.636946     -67.8645 
0.00127825     0.612944     -61.7626 
7.34584e-05     0.621772     -62.1985 
0.000480503     0.633246     -68.7026 
0.00227037      1.17290     -39.1176 
0.00171889      1.19854     -49.3987 
0.00204566      1.20507     -49.0377 
0.00290522      1.15109     -39.3595 
0.00149653      1.33222     -54.1623 
0.00102392      1.21165     -48.6806 
0.00884590     0.371618     -66.1941 
0.00284969     0.116619      120.964 
0.00352513      1.06400     -53.0224 
0.00102896      1.32639     -54.5125 
0.00174324      1.14337     -39.6772 
0.000340087      1.21828     -48.3274 
0.000514717      1.23907     -47.9440 
0.00251656     0.284429     -79.8753 
0.00129329      1.24579     -47.6026 
0.000290608      1.32061     -54.8658 
0.000231170      1.34618     -54.0665 
0.000557162      1.28413     -56.4337 
0.00102976      1.25256     -47.2648 
0.000282580      1.35207     -53.7234 
2.99235e-05     0.122066      124.992 
0.00126162      1.15884     -39.0459 
0.00149814      1.36400     -53.0461 
0.000500128     0.128062      128.660 
0.000784819      1.05475     -42.3102 
0.000490873     0.134536      131.987 
0.000302410      1.18849     -38.5092 
0.00363718     0.300832     -74.5778 
0.00254823     0.286356     -77.9052 
0.000445953      1.37004     -52.7119 
0.000796064     0.134536      138.013 
0.000208711      1.16662     -38.7365 
0.000149549     0.128062      141.340 
0.00148353     0.526308     -38.8298 
0.00139298     0.935201     -65.3532 
0.00305850     0.534135     -38.1572 
0.000152300     0.759276     -77.0619 
0.00310765     0.757100     -77.7995 
0.00112809     0.939415     -64.7989 
0.000940358     0.943716     -64.2495 
0.00102083     0.766877     -77.9574 
0.00306233     0.724500     -63.7886 
0.000480981     0.948103     -63.7052 
0.000413855     0.528015     -37.3039 
0.000244272     0.952575     -63.1660 
4.24835e-05     0.957131     -62.6318 
0.00184331     0.504480     -39.3693 
0.000992296     0.940213     -66.1613 
0.000192138     0.510882     -40.2364 
0.000399819     0.503289     -40.9717 
0.000290485     0.936216     -66.7211 
7.04356e-06     0.473814     -45.8551 
1.39166e-05     0.512250     -38.6598 
0.000223253     0.481041     -43.3153 
0.00208566     0.466690     -45.0000 
0.000147334     0.489183     -40.8554 
0.000802817     0.932309     -67.2856 
0.000295752     0.496790     -40.1009 
0.000698291     0.747329     -77.6375 
0.000106364     0.948262     -62.3540 
0.00137748    0.0900001     -90.0000 
0.000400498     0.928493     -67.8548 
1.20256e-05     0.506063     -37.7757 
0.000566836    0.0905540     -83.6597 
0.000129648     0.924770     -68.4287 
0.00177511     0.364006     -69.0755 
0.000512772     0.351141     -70.0169 
0.00180449     0.367696     -67.6199 
0.000379107     0.376962     -68.1986 
0.00110179     0.390000     -67.3801 
0.000885750     0.380789     -66.8014 
0.000373402     0.325730     -72.1213 
0.00156337     0.393954     -66.0375 
0.00151130    0.0799999     -90.0000 
0.000313736     0.930860     -50.6673 
2.27163e-05     0.704911     -58.3392 
0.000274253     0.699714     -59.0362 
0.000401788     0.937230     -50.1944 
0.000304796     0.694622     -59.7436 
0.000379221     0.951315     -50.1173 
0.000557732     0.689638     -60.4612 
0.00157490     0.684763     -61.1892 
0.000364572     0.680000     -61.9275 
0.000266616     0.957758     -49.6583 
0.000224161     0.675352     -62.6761 
0.00119684     0.980816     -50.7928 
4.62273e-05     0.686003     -59.3227 
8.81599e-05     0.670820     -63.4349 
0.000125369     0.950158     -49.2679 
0.000138517     0.698928     -56.0826 
0.000113612     0.666408     -64.2040 
0.000104747     0.662118     -64.9831 
0.000221921     0.704557     -55.4077 
0.000158331     0.657951     -65.7723 
0.000205785     0.956713     -48.8141 
0.000558125     0.710282     -54.7436 
0.000161611     0.653911     -66.5713 
3.41864e-05     0.963328     -48.3665 
1.57196e-05     0.663099     -66.9149 
7.79941e-06     0.106301     -48.8141 
0.000173780     0.955877     -47.9682 
3.15524e-05     0.671193     -65.3441 
7.67072e-06     0.667083     -66.1247 
0.000198159     0.987168     -50.3431 
0.000157467     0.680955     -60.0464 
0.00407178    0.0707106     -98.1301 
0.00287106    0.0728011     -105.945 
0.000318983     0.676018     -60.7808 
2.13899e-05     0.693397     -56.7683 
2.04853e-05     0.671193     -61.5258 
3.95683e-05     0.666483     -62.2815 
3.80631e-05     0.661891     -63.0478 
0.000620395    0.0999999     -53.1301 
0.000119323     0.657419     -63.8247 
0.000512770     0.702140     -54.2726 
1.36808e-05     0.362491     -65.5560 
6.70353e-06     0.694046     -53.7905 
0.000131522     0.588727     -69.1022 
4.44797e-05     0.592368     -68.1986 
0.000123908     0.375766     -64.7989 
0.000894579      1.50047     -56.4158 
0.000889481      1.43544     -58.9678 
0.00246401    0.0632457     -108.435 
0.000115484      1.52552     -55.6849 
0.00120371      1.53118     -55.3758 
0.000366768    0.0921954     -49.3987 
0.00125335    0.0670820     -116.565 
0.000126847      1.44402     -59.1723 
2.26258e-05      1.53942     -55.5873 
0.000176246      1.23329     -71.5651 
0.000104554      1.23016     -72.0069 
0.000259324     0.302655     -7.59465 
0.000320541     0.312570     -7.35239 
4.90827e-05      1.23968     -72.1497 
1.48001e-05      1.23762     -74.0546 
0.00316695      1.57433     -74.9045 
0.000159815      2.30463     -67.5523 
0.000224045      2.73057     -58.1726 
0.00261905      2.30846     -67.3229 
0.000512586      2.72208     -58.0616 
0.000367427      1.97327     -71.3814 
0.000489658      1.98595     -71.2001 
0.000630362      2.72531     -58.3512 
0.000863306     0.737564     -49.3987 
0.00138995     0.744110     -48.8141 
0.000239114      1.97010     -71.6570 
0.000263411      1.57696     -74.5537 
2.48862e-05      2.71046     -57.6585 
4.88715e-05      2.72861     -58.6401 
7.21252e-05      2.70740     -57.3665 
0.000115558      1.95747     -71.8427 
4.72766e-05      2.73198     -58.9283 
0.000113603      2.70440     -57.0738 
0.000112789      2.72683     -59.1083 
2.23040e-05      2.06344     -69.2815 
2.18794e-05      2.07993     -68.8636 
4.34392e-05      2.70985     -56.8964 
0.000375954      2.73031     -59.3961 
4.30280e-05      1.92925     -72.5042 
8.40625e-05      2.08355     -68.6071 
0.000105135      2.70148     -56.7805 
0.000239965      2.70697     -56.6035 
0.000101480      1.91672     -72.6995 
0.000951206      2.09652     -68.4523 
5.70141e-05      1.90421     -72.8973 
0.000133057      1.56467     -74.8091 
0.000669973      2.70416     -56.3099 
0.000188847      1.90129     -73.1853 
0.00130321      2.72523     -59.5771 
0.000239829      2.70703     -55.8403 
0.000239705      1.88884     -73.3879 
0.000907415      2.37255     -70.0375 
1.44702e-05      2.71577     -55.1981 
0.000307831      1.56208     -75.1631 
0.000576978      2.72149     -55.0252 
6.77969e-05      2.32545     -66.9632 
2.61973e-05      2.34252     -66.6087 
0.000288134     0.745185     -49.8991 
1.29112e-05      2.34651     -66.3846 
0.000599553      1.57305     -69.1455 
5.04303e-05      2.35968     -66.2594 
8.37640e-05      2.36373     -66.0375 
0.000103242      1.88600     -73.6790 
4.52658e-05      2.37693     -65.9151 
2.24566e-05      2.27853     -67.8250 
0.000133937      2.38103     -65.6954 
1.06001e-05      2.27477     -68.0583 
0.000300664      1.87641     -73.5932 
5.83103e-05      2.26177     -68.1986 
0.000267377      1.57175     -75.2564 
0.000293486     0.724224     -54.5543 
6.44142e-05      2.39426     -65.5759 
0.000110929      2.24511     -68.5777 
0.000214408      2.39842     -65.3583 
0.000128301      2.69863     -56.4866 
0.000130399      2.10583     -68.5523 
9.68987e-05     0.750733     -48.2397 
0.000114625      1.56924     -75.6095 
5.67002e-05      2.24147     -68.8157 
8.62040e-05      2.40260     -65.1416 
0.00117077      4.08755     -63.2469 
4.06615e-05     0.445982     -19.6538 
0.000347581     0.455412     -19.2307 
7.29399e-05     0.464866     -18.8247 
3.59108e-05     0.474342     -18.4350 
7.07550e-05     0.502892     -17.3540 
6.90745e-05     0.449444     -20.8545 
0.000102041     0.522015     -16.6993 
0.000550750      4.11238     -65.4292 
9.84619e-05     0.440114     -21.3179 
3.29657e-05     0.531601     -16.3895 
0.00141264      1.73066     -56.3099 
9.71551e-05      4.07863     -63.1837 
3.21956e-05     0.528867     -15.3501 
9.43005e-05     0.430813     -21.8014 
0.000123545     0.538517     -15.0685 
0.000293285      4.08315     -63.0584 
6.07237e-05     0.434626     -23.0255 
8.77741e-05     0.425441     -23.5523 
0.000254999     0.548179     -14.7968 
0.000112176      1.64648     -61.7228 
2.82367e-05     0.412311     -22.8337 
2.78506e-05     0.357351     -17.9279 
2.74979e-05     0.344819     -16.8584 
5.39998e-05     0.335261     -17.3540 
0.000183479      4.10824     -65.5560 
0.000229488      1.64177     -62.0302 
0.000204800     0.557853     -14.5344 
0.000310295      4.07424     -62.9947 
2.65627e-05     0.439090     -30.0686 
0.000128484     0.322800     -16.1892 
2.58515e-05     0.444185     -31.1850 
7.38923e-05     0.449444     -32.2756 
0.000325245      4.11734     -65.6136 
0.000166186     0.310483     -14.9314 
0.000336821     0.567538     -14.2811 
0.000264824      1.63710     -62.3393 
0.000192715     0.441022     -32.9694 
8.86520e-05     0.298329     -13.5704 
0.000204195     0.288617     -14.0362 
0.000183338      4.11322     -65.7405 
0.000100836      4.06533     -62.9307 
0.000119991     0.577235     -14.0362 
7.93460e-05      1.64596     -62.5009 
0.000898722      3.93620     -49.4303 
0.000291235      3.92210     -49.4462 
0.000197802      3.94271     -49.3199 
3.83850e-05      3.89391     -49.4785 
7.45933e-05      3.87981     -49.4948 
0.000145009      3.95682     -49.3045 
0.000106805      3.86571     -49.5112 
0.000167117      3.97092     -49.2892 
0.000165765      3.85161     -49.5278 
0.000182024      3.98502     -49.2739 
0.000151176      3.83751     -49.5445 
0.000885096      3.81278     -46.5941 
0.000111465      3.99155     -49.1652 
0.000109636      3.83103     -49.6583 
7.88592e-05      3.99810     -49.0567 
2.60430e-05      3.82341     -49.5612 
9.95688e-05      3.81694     -49.6755 
2.53940e-05      4.00466     -48.9487 
2.51062e-05      4.04353     -48.1076 
4.91455e-05      4.05021     -48.0023 
2.40624e-05      4.05691     -47.8973 
0.000138855      3.81047     -49.7901 
4.71713e-05      4.06362     -47.7927 
2.31275e-05      3.99912     -49.2588 
6.80891e-05      4.07708     -47.5845 
0.00114491      4.08383     -47.4809 
0.000148124      3.80402     -49.9052 
6.25668e-05      4.00020     -49.4608 
0.000171162      3.79759     -50.0206 
0.000628361      3.80552     -46.4906 
0.000103815      4.00132     -49.6627 
0.000167769      3.79117     -50.1364 
0.000147288      3.78477     -50.2526 
0.000154175      4.00895     -49.7552 
0.000165545      3.77839     -50.3692 
0.000140973      3.77202     -50.4862 
4.93181e-05      4.01659     -49.8474 
8.47523e-05      3.76566     -50.6035 
9.88582e-06      3.77445     -48.1143 
8.95131e-05      3.80518     -46.2778 
6.95046e-05      3.76778     -48.2275 
5.90700e-05      4.01015     -49.9566 
9.05536e-05      3.75932     -50.7213 
1.57685e-05      3.81210     -46.1691 
0.00279441      7.16208     -69.9964 
0.00120966      7.78165     -48.8556 
0.000427376      7.77412     -48.8071 
0.000747671      7.41307     -70.7829 
0.000204791      7.78071     -48.7517 
0.000893297      7.17148     -70.0237 
3.27624e-05      7.81054     -48.0619 
0.000126159      7.81722     -48.0073 
6.06628e-05      7.77507     -48.9111 
0.000232092      7.81650     -47.9038 
0.000143889      7.78261     -48.9595 
0.000212641      7.40034     -70.8305 
0.000107888      7.77605     -49.0151 
0.000281879      7.82320     -47.8495 
0.000170734      7.39706     -70.9037 
0.000245380      7.78360     -49.0634 
0.000138216      7.81579     -47.8003 
0.000255067      7.16807     -70.0988 
0.000133316      7.48760     -70.0888 
0.000309775      7.79116     -49.1116 
2.22094e-05      7.39379     -70.9769 
0.000225758      7.82251     -47.7460 
2.17837e-05      7.38730     -71.1236 
2.13736e-05      7.38407     -71.1970 
0.000477967      7.63820     -47.7061 
4.17090e-05      7.37765     -71.3440 
0.000100801      7.49101     -70.0169 
5.99996e-05      7.37446     -71.4176 
7.57131e-05      7.37128     -71.4913 
0.000128641      7.49443     -69.9450 
0.000216592      7.83664     -47.7411 
0.000279850      7.79872     -49.1596 
0.000105339      7.36811     -71.5651 
0.000132279      7.49787     -69.8733 
0.000126924      7.36495     -71.6389 
0.000104643      7.50131     -69.8015 
0.000166453      7.36181     -71.7127 
4.33420e-05      7.14079     -69.7633 
0.000151900      7.84337     -47.6870 
0.000266006      7.53146     -48.6065 
0.000194327      7.80629     -49.2076 
0.000107462      7.50477     -69.7299 
8.13212e-05      7.13488     -69.6601 
2.68991e-05      7.18349     -70.2281 
6.26399e-05      7.12550     -69.6322 
0.000131553      7.85010     -47.6330 
0.000164877      7.35868     -71.7866 
5.96847e-05      7.18953     -70.3301 
3.72830e-05      7.50824     -69.6583 
0.000103010      7.51172     -69.5868 
1.20188e-05      7.12899     -69.5568 
3.43759e-05      7.64493     -47.6507 
9.02851e-05      7.11962     -69.5287 
5.55953e-05      7.81386     -49.2555 
2.19704e-05      7.86423     -47.6283 
1.09458e-05      7.19559     -70.4319 
0.000895186      5.51765     -65.4787 
0.000380912      5.51272     -65.3410 
0.000139607      5.53592     -66.5840 
8.30434e-05      5.50782     -65.2031 
0.000290880      5.50295     -65.0649 
0.000810436      5.54510     -66.6250 
0.000504428      5.49812     -64.9264 
9.27277e-05      5.50236     -64.8321 
0.000289560      5.49758     -64.6935 
0.000249431      5.50970     -63.2489 
7.12830e-05      5.49331     -64.7878 
0.000549267      5.55428     -66.6660 
0.000787823      5.50077     -63.2020 
0.000180371      5.49389     -65.0209 
0.000322043      5.56346     -66.7068 
1.85425e-05      5.57265     -66.7474 
0.00175069      3.21960     -72.4655 
0.00168374      3.22262     -72.2960 
0.00165643      6.98553     -63.6550 
0.000438148      6.67471     -61.9376 
0.000307999      6.98997     -63.5816 
0.000266690      6.67001     -62.0134 
0.00135870      7.03563     -62.4880 
0.000100710      6.66118     -61.9731 
0.000652134      6.65649     -62.0490 
0.000239708      6.99006     -63.7649 
0.000246590      6.98565     -63.8384 
0.000321777      6.65180     -62.1251 
0.000201375      6.99023     -63.9481 
6.23320e-05      3.21310     -72.2417 
0.000768467      6.63428     -54.6330 
0.00139782      4.23562     -45.2870 
0.000876466      6.62034     -54.6535 
0.000528470      6.62613     -54.5829 
8.01965e-05      4.22859     -45.3832 
0.000324612      4.29930     -44.6231 
1.92455e-05      4.22158     -45.4799 
1.89180e-05      4.21457     -45.5768 
1.85946e-05      4.20758     -45.6740 
1.82965e-05      4.20060     -45.7716 
5.33489e-05      4.19363     -45.8695 
1.74841e-05      6.63193     -54.5125 
1.73006e-05      6.64939     -54.3021 
1.72726e-05      4.18667     -45.9677 
3.38028e-05      4.17972     -46.0663 
3.37345e-05      6.66108     -54.1623 
3.29634e-05      6.60879     -54.7949 
3.28518e-05      4.17279     -46.1652 
3.26570e-05      6.66694     -54.0927 
4.76366e-05      4.16587     -46.2644 
3.17985e-05      6.60303     -54.8658 
4.70654e-05      6.67281     -54.0231 
6.07195e-05      4.15897     -46.3639 
3.05656e-05      6.59728     -54.9368 
4.51586e-05      6.67061     -53.9032 
1.49337e-05      6.59154     -55.0080 
-0.00159969      7.34200      16.2134 
-0.000498584      1.57137     -47.5791 
-4.96726e-05      7.35161      16.1916 
-0.000509786      5.22009     -117.743 
-9.82541e-05      1.94538     -26.5651 
-0.00105879      7.34480      16.2883 
0.000763691      6.72947     -18.8119 
-0.00186710      1.93644     -26.6974 
-0.000275489      3.64892     -134.334 
0.000600382      6.62820     -110.951 
-0.000312787      6.46692     -47.0052 
-0.000685997      1.55724     -47.6026 
-0.00114489      7.86304     -44.8970 
-0.000854327      7.11018     0.402916 
-4.37766e-05      3.65608     -134.224 
8.65919e-05      5.88863     -84.3475 
-0.000440876      3.31483      68.7763 
-0.000121004      7.10018     -15.8567 
-0.000802989      3.64911     -134.112 
-0.00106448      7.35440      16.2664 
-8.41610e-05      7.11253     -15.9122 
0.000539345      2.81443      172.446 
0.000739529      5.88766     -84.4443 
-0.000531826      5.21591     -117.892 
0.000687337      6.85925     -42.3411 
-0.000271177      7.12337     -112.100 
-0.000782097      4.32709     -121.486 
-0.000149453      5.59103      23.1717 
-0.000514043      6.46010     -47.0700 
-0.000457143      7.34692     -67.3441 
0.000677384      9.40724     -43.6217 
0.000301208      5.69499     -105.793 
0.000302263      3.05118     -118.161 
-0.000154537      6.50792     -117.549 
-0.000604408      6.75012     -32.2303 
0.000110589      2.04453     -133.216 
-0.000149729      4.10366     -83.8448 
0.000288537      5.04386     -121.295 
-0.000820465      7.68064     -62.1338 
0.000124738      7.69146     -33.0083 
-0.000269887      4.23710     -28.3191 
0.00127214      6.90684     -105.364 
-0.000285812      6.51255     -117.627 
0.000179433      3.28672     -3.66333 
0.000303103      6.73894     -18.7845 
-0.000565892      5.61626     -71.3070 
0.000350949      4.40048     -133.158 
0.000510411      7.68308     -33.0489 
-3.62081e-05      6.52141     -117.587 
-0.000274035      4.10474     -83.7061 
-0.000105912      2.54372     -78.2041 
-0.000615165      1.66436      155.129 
-0.000365424      1.21758      17.6909 
0.00130524      5.15318     -12.5529 
0.000126628      3.05591     -118.326 
0.000525582      6.91234     -1.49217 
0.000258025      5.69228     -105.697 
-0.000887199      7.35078     -67.2722 
-0.000379886      7.42596     -60.2934 
6.80956e-05      3.25744     -3.87258 
-0.00101173      4.82188     -80.8112 
-0.000903503      7.68532     -62.0678 
0.000131903      3.24746     -3.88449 
0.000280877      6.85186     -42.3974 
-0.00163874      9.03710     -45.4483 
0.000124889      2.80321      172.621 
0.000131169      6.34215     -36.4724 
-0.000259070      6.52605     -117.664 
0.000191386      5.04906     -121.392 
-0.000220893      2.53190     -78.3794 
0.000226267      3.05188     -118.580 
-9.44045e-05      3.31846      68.6154 
3.32496e-05      3.30668     -3.64119 
-0.000522995      3.64216     -133.999 
-0.000645354      4.33232     -121.599 
-9.38916e-05      5.56799     -26.1049 
-0.000446355      5.57248     -5.14789 
-0.000126594      6.77237     -32.2116 
6.25920e-05     0.560803      58.8610 
0.000489402      5.88670     -84.5412 
9.46162e-05      3.23748     -3.89648 
-0.000268360      3.26259      39.1535 
-0.000234887      4.09371     -83.8298 
6.20412e-05      8.76415     -37.2099 
0.000258374      6.33411     -36.5262 
3.08578e-05      3.35658     -3.58698 
-9.06395e-05      6.78083     -32.1666 
-0.000116934      4.71154     -67.4082 
-0.000265395      6.53070     -117.742 
-0.000408192      1.21458      17.2415 
0.000120214      3.22751     -3.90855 
0.000119426      2.57031     -179.108 
-0.000149977      9.10146     -44.1542 
0.000117904      5.87554      18.2499 
0.000346836      6.06321     -95.0148 
6.01448e-05      6.92261     -1.57276 
-0.000116911      1.90924     -135.424 
5.91366e-05      8.77212     -37.1704 
0.000650421      6.91261     -1.57503 
-0.000400993      5.61948     -71.2104 
5.85576e-05      6.61906     -81.1354 
8.77816e-05      3.11321     -147.995 
0.000199411      5.61485     -47.9597 
-0.000116788      7.85599     -44.8453 
2.97162e-05      3.36656     -3.57634 
-5.82779e-05      1.56464     -47.8495 
0.000290762      3.28110      134.506 
-0.000797600      1.67344      155.273 
-2.95456e-05      5.21124     -117.794 
0.000223592      2.98304      79.1798 
-0.000347030      6.45329     -47.1350 
-0.000162030      2.54951      101.310 
-5.81740e-05      6.80309     -32.1482 
-5.78660e-05      4.20315     -41.0449 
0.000108174      5.05428     -121.489 
8.61125e-05      3.37654     -3.56575 
-0.000418536      3.25484      39.2646 
0.000113581      2.17920      72.6460 
-0.000196625      9.10863     -44.1104 
0.000140167      5.39073     -86.3839 
0.000358628      3.21823     -4.09830 
0.000245298      2.56031     -179.105 
0.000958257      2.12174      56.5346 
-0.000112208      6.81156     -32.1035 
-0.00113479      7.11011     0.322335 
-0.000258467      2.24502      176.169 
2.83949e-05      8.78009     -37.1309 
-0.000527677      7.84890     -44.8968 
-0.00144830      6.58365      25.7477 
0.000506284      3.10793     -148.151 
0.000159278      9.37372     -47.8538 
0.000812339      3.20826     -4.11106 
-0.000484074      4.20973     -41.1475 
5.36288e-05      5.39854     -117.467 
0.000609557      2.60279     -169.597 
2.78740e-05      8.77406     -37.0789 
-0.000108660      6.53536     -117.820 
5.49764e-05      3.38652     -3.55523 
8.08995e-05      6.63049     -81.0633 
-0.000203597      7.56066     -23.3777 
-0.000313427      2.63251      59.1482 
5.35488e-05     0.555698      59.7436 
-0.00152444      6.59266      25.7100 
2.75239e-05      1.30752      96.1466 
-7.45667e-05      4.34053     -56.2733 
0.000254841      2.18220      72.3954 
0.000107246      8.78204     -37.0395 
-5.43757e-05      5.85430     -54.7354 
-2.74354e-05      6.52185     -117.783 
-0.00180821      7.56984     -23.3477 
0.000122549      7.67470     -33.0896 
-0.000103974      4.24590     -28.2551 
-7.80557e-05      4.72462     -67.3428 
-9.83908e-05      7.43092     -60.2264 
2.71306e-05      5.88192      18.1269 
-8.02740e-05      6.84229     -32.0409 
0.000412729      5.88575     -84.6381 
7.84750e-05      4.39364     -133.063 
0.000279102      3.39589     -3.37637 
-0.000900809      9.11582     -44.0666 
0.000356874      2.80451      172.419 
-0.000710140      2.61939      165.858 
-2.67631e-05      4.21062      11.2299 
0.000153211      5.40071     -86.3906 
0.000153515      5.62897     -47.9523 
-0.000238528      3.12488     -167.431 
2.65971e-05      5.89784      17.9741 
-2.65902e-05      2.62909      165.911 
-0.000217018      5.86008     -54.6555 
-0.000154747      6.52652     -117.861 
-7.52360e-05      5.58244     -5.13868 
0.000225908      5.53565     -79.9081 
5.19518e-05      5.90428      17.8519 
-7.62561e-05      2.23504      176.152 
7.48912e-05      9.53282     -41.7683 
-0.000124010      4.20081      11.2564 
-0.000125875      6.85077     -31.9965 
-9.94645e-05      1.91627     -135.211 
0.000124490      2.99475      79.0278 
5.14505e-05      8.79002     -37.0003 
5.00502e-05      5.36281     -30.7256 
-0.000386676      6.50202      28.5753 
0.000116430      2.09881     -40.7493 
4.78653e-05      6.45697     -39.5329 
-0.000236782      5.37023     -90.5335 
-4.99398e-05      7.69001     -62.0020 
0.000169271      2.56018     -179.329 
2.53166e-05      5.05951     -121.585 
5.02295e-05      5.92027      17.7004 
-4.97258e-05      4.83335     -80.7131 
0.000122136      8.78401     -36.9482 
4.95867e-05      6.62894     -81.1487 
-0.000210210      4.81967     -129.105 
-0.000161216      3.63522     -133.885 
4.91711e-05      6.45864     -112.197 
-7.42201e-05      6.54003     -117.897 
-0.000336585      3.33542     -119.255 
0.000166188      5.69228     -52.5664 
-4.91813e-05      6.10248     -86.3358 
0.000489762      9.35959     -47.8581 
4.72626e-05      5.08564     -95.7554 
-4.75934e-05      6.12060     -80.6916 
2.44953e-05      5.92980      17.6710 
-7.19183e-05      3.09454      144.204 
-0.000119158      6.53119     -117.938 
-6.92642e-05      7.30178     -43.0021 
-0.000375938      6.10312     -86.2421 
2.41532e-05      5.93933      17.6418 
0.000205386      5.63567     -47.8768 
-7.10880e-05      6.85925     -31.9523 
-0.000308123      1.20503      17.3824 
-9.35726e-05      2.29456      115.560 
0.000190425      7.66632     -33.1304 
2.38625e-05      3.58537      44.2090 
0.000113651      6.63883     -81.1620 
2.38082e-05      5.94886      17.6126 
0.000271514      6.90420     -105.284 
9.26392e-05      5.40009     -86.4965 
-2.37368e-05      2.65153      91.9451 
-0.000138128      4.83175     -80.8301 
0.000158175      5.53390     -80.0100 
4.68731e-05      5.98400      17.4054 
-0.000181639      6.54472     -117.975 
-2.35050e-05      2.79732     -167.405 
-0.000157521      3.24711      39.3763 
4.58107e-05      6.45487     -112.115 
0.000219257      2.89375      27.3620 
6.77493e-05      3.29524      134.508 
-4.60093e-05      6.44650     -47.2002 
-4.63591e-05      2.79952     -167.205 
-2.32579e-05     0.395601      159.274 
-0.000232803      4.33562     -121.417 
-0.000320112      6.48198     -88.5856 
-0.000284383      3.08871      144.355 
-2.32032e-05      6.79743     -11.1116 
0.000176038      6.86599     -42.4028 
4.60739e-05      5.99354      17.3768 
0.000152984      3.40588     -3.36646 
4.43820e-05      6.72324     -18.9200 
0.000110805      8.77800     -36.8960 
-6.80536e-05      6.86774     -31.9081 
2.30634e-05      6.74541      2.29400 
0.000224308      2.19173      72.4744 
-0.000172046      5.60679     -71.2742 
-0.000171026     0.408534      158.459 
-0.000366040      2.80927     -167.250 
0.00105006      2.61084     -169.852 
-6.64671e-05      1.91638     -135.634 
0.000273997      6.00308      17.3483 
0.000449759      6.05325     -95.0230 
-9.77260e-05      2.64153      91.9525 
6.51135e-05      2.99666      78.8401 
8.82677e-05      2.56008     -179.552 
2.27068e-05      2.44387      120.763 
4.38275e-05      3.57821      44.3206 
-0.000575923      6.51080      28.5332 
-0.000263580      2.29026      115.334 
-0.000229312      6.80917     -11.1779 
-0.000163948      9.02998     -45.4038 
0.000323373      5.68620     -52.6464 
6.59873e-05      6.75580      2.37535 
2.24372e-05      9.40001     -43.6638 
0.000272276      4.39319     -133.248 
2.23788e-05      8.78600     -36.8569 
-2.23720e-05      3.62802     -133.995 
-0.000813898      1.90066      79.6952 
-6.54830e-05      6.53589     -118.016 
-0.000152948      1.89190     -152.622 
-6.55883e-05      2.23439      176.408 
-4.42720e-05      7.77772     -27.3228 
0.000307328      6.91289     -1.65788 
-0.000938020      3.09362      84.6211 
-0.00157152      7.33240      16.2352 
-2.20563e-05      6.12222     -80.5992 
2.20133e-05     0.550727      60.6422 
4.34304e-05      2.44900      120.964 
-0.000124597      4.82029     -80.9285 
-0.000128301      6.54941     -118.052 
-4.33860e-05      6.87623     -31.8641 
-0.000170505      7.79120     -27.3544 
-0.000246242      7.84182     -44.9483 
-2.16931e-05      3.33054     -119.105 
0.000252810      2.04978      5.59934 
-0.000123912      5.36023     -90.5345 
0.000897641      2.54262      128.132 
-0.000388130      2.28064      162.916 
-0.000101933      7.35465     -67.2004 
0.000167162      6.90157     -105.204 
-0.000100489      1.92751     -26.8309 
-0.000174387      5.86587     -54.5759 
-0.000761721      6.38659     -48.9997 
8.40340e-05      2.52071     -178.636 
-2.13061e-05      2.79732      167.405 
-0.000159228      7.86003     -36.7241 
8.37798e-05      4.69554     -75.6974 
-0.000194182      3.11512     -167.391 
-6.19562e-05      2.24437      176.424 
-0.000362918      2.80708      167.449 
-0.000162359      1.88303     -152.482 
-0.000341222      4.24549      132.900 
-0.000145281      6.54059     -118.093 
-0.000123310      3.09458      84.4368 
-0.000357630      2.60969      165.804 
0.000197984      8.77200     -36.8438 
0.000199716      6.01263      17.3199 
8.12862e-05      5.64238     -47.8014 
-2.09513e-05      4.98414      28.2618 
-0.000102013      3.46094     -137.459 
2.09122e-05      6.64871     -81.1752 
6.10877e-05      1.80867      21.7426 
0.000349040      7.79742     -64.8810 
-6.14441e-05      6.88472     -31.8201 
-0.000116821      4.34084     -121.530 
-0.000101513      1.68253      155.415 
0.000122028      1.92000     -90.0000 
-0.000294873      2.14581     -96.9594 
0.000201229      3.76703     -14.9216 
6.07885e-05      6.87338     -42.3466 
0.000191409      2.00142     -31.3074 
6.09765e-05      6.76580      2.37184 
-0.000353195      7.80008     -27.3206 
-6.01301e-05      4.97534      28.3164 
8.11396e-05      2.89807      27.0956 
8.08918e-05      2.51098     -178.403 
-0.000280893      3.08289      144.506 
0.000560210      4.70771     -75.6095 
-9.01552e-05      3.48208     -36.4750 
-0.000179053      6.55412     -118.129 
-0.000908429      7.32280      16.2571 
4.01706e-05      6.64718     -81.2604 
-9.65561e-05      3.68860     -95.7570 
-5.84189e-05      6.13538     -80.4302 
3.99209e-05     0.979439      63.9582 
-7.91570e-05      6.45232     -7.30124 
-2.01404e-05      3.13465     -15.5437 
2.01329e-05      6.89192     -105.226 
5.79075e-05      6.71704     -19.0284 
-2.00952e-05      7.33520      16.3102 
-0.000819060      9.12300     -44.0230 
2.00541e-05     0.975090      64.4861 
0.000137208      6.89896     -105.124 
-0.000155851      2.81149     -167.051 
-3.96784e-05      3.09739      120.456 
-5.88202e-05      3.12501     -15.5928 
9.70751e-05      8.19793     -46.4333 
1.98293e-05      2.56815      72.5528 
0.000508002      2.90697      27.0058 
-0.000165756      6.10379     -86.1485 
1.97886e-05      2.51072     -178.631 
-0.000168860      3.74556      54.7824 
0.000223877      1.91000     -90.0000 
-0.000218990      1.20208      16.9275 
-5.87016e-05      4.22314      136.631 
3.89122e-05      2.79460      172.392 
1.96393e-05      5.52406     -79.9920 
0.000243809      9.25127     -41.5821 
-7.70495e-05      3.44681     -137.469 
1.95734e-05      2.56000      180.000 
-0.000163648      5.61001     -71.1775 
-0.000146324      6.77939     -66.9901 
-0.000115585      6.54530     -118.170 
-1.95271e-05      6.47198     -88.5834 
9.33283e-05      2.56517      72.7659 
-0.000170078      8.02629     -52.6447 
7.60309e-05      6.65555     -81.3586 
0.000131767      2.96204     -65.2519 
-0.000239707      1.42706      28.0016 
0.000300493      2.50098     -178.396 
5.55609e-05      3.11642     -148.248 
0.000147220      6.78620      2.44921 
-1.94287e-05      5.99023     -3.34961 
-3.85648e-05      3.10247      120.615 
0.000112656      5.64911     -47.7263 
-3.82666e-05      7.67802     -34.6008 
-0.000234215      6.47223     -88.4949 
-0.000197966      1.74897      70.6326 
1.93275e-05     0.984124      64.7369 
-0.00106533      4.20900      136.637 
0.000185882      3.77669     -14.8826 
-0.000756523      2.29314      162.750 
-0.000187285      4.81872     -81.0459 
-5.61987e-05      4.97060      28.2149 
0.000112874      6.89635     -105.044 
-7.54664e-05      6.55884     -118.206 
-0.000111391      1.87843     -152.753 
-0.000197907      7.83474     -45.0000 
1.90264e-05      8.64517     -37.8110 
-0.000346246      2.81684      167.493 
-0.000161438      6.54860      6.22425 
-0.000293797      6.46224     -7.28997 
-3.76759e-05      3.12234     -15.4161 
0.000142216     0.988433      64.2127 
-0.000383406      6.79936     -11.1943 
-1.89327e-05      3.79436     -99.7106 
-0.000390635      4.25231      132.999 
0.000146365      8.63727     -37.8517 
1.88593e-05      5.68014     -52.7266 
-3.75846e-05      3.10757      120.774 
-0.000256720      2.61216      165.591 
-0.000183871      6.55003     -118.247 
-5.43549e-05      6.89322     -31.7763 
-0.000128634      7.79550     -27.2553 
-0.000161924      2.82124     -167.097 
0.000109551      8.19104     -46.4840 
-3.70136e-05      6.87321     -82.2236 
-0.000109041      3.79269     -99.5617 
0.000415016      8.76601     -36.7915 
-0.000573321      6.51959      28.4912 
8.92254e-05      2.57002      179.777 
-0.000319720      8.08824     -51.2738 
-0.000108955      3.43945     -137.357 
1.86078e-05      3.60484      35.6301 
0.000104302      2.80585      172.216 
-9.03257e-05      7.68625     -34.5584 
-3.70327e-05      6.38003     -49.0675 
-1.85699e-05      4.34898     -55.8715 
-1.85563e-05      7.35853     -67.1286 
-0.00106816      9.03009     -45.4935 
0.000212357      6.05238     -94.9287 
-0.000278993      2.14462     -96.6942 
1.84758e-05      3.57106      44.4327 
-0.000195442      5.34649     -78.0175 
0.000158567      6.90290     -1.66028 
1.84323e-05      7.67179     -33.1929 
0.000144751      6.89376     -104.964 
-0.000174601      4.21726     -41.0581 
-3.64529e-05      2.25435      176.440 
-3.59424e-05      6.12386     -80.5069 
0.000124671      7.51122     -19.2792 
-3.59363e-05      3.11270     -15.4650 
-0.000124093      3.11270      120.932 
-0.000157182      1.90436     -160.043 
-0.000188169      6.60286     -50.1611 
1.82757e-05      3.58431     -84.8779 
-1.81878e-05      2.25938      79.2869 
5.39379e-05      9.35289     -47.9035 
5.38279e-05      6.66395     -81.4565 
-0.000139513      3.69957     -95.8955 
0.000151835      3.60717      35.4084 
-0.000170974      8.03236     -52.5880 
-8.94175e-05      6.56357     -118.283 
-0.000591856      7.80897     -27.2870 
-5.30717e-05      6.87186     -82.3062 
5.20053e-05      2.96624     -65.0765 
-1.78792e-05      4.96179      28.2695 
0.000255778      9.24379     -41.6232 
0.000105232      5.07051      10.2240 
-0.000186823      3.67078      6.09887 
-3.55604e-05      1.86955     -152.613 
-0.000446632      2.60248      165.537 
8.69198e-05      5.65584     -47.6514 
-0.000261893      2.26921      79.3338 
-0.000318619      8.42119     -34.5015 
-0.000544881      6.55477     -118.324 
0.000120888      3.78636     -14.8437 
5.17755e-05      7.79318     -64.9476 
-0.000234924      6.98585     -72.1616 
0.000104629      6.89119     -104.883 
-1.76077e-05      4.80080     -128.828 
-1.76052e-05      3.73980      54.9076 
5.21739e-05      6.66247     -81.5415 
0.000169428      9.34547     -47.8624 
3.50299e-05      8.62937     -37.8925 
-8.63091e-05      3.42532     -137.366 
-0.000169895      1.86497     -152.885 
-0.000151395      2.04247     -76.9844 
-0.000580660      3.73162      54.8193 
5.20302e-05      9.15848     -50.1384 
-0.000151969      2.91029      140.018 
-0.000444192      2.82661      167.537 
3.41971e-05      4.39278     -133.432 
-0.00129794      7.69415     -62.1027 
0.000711494      2.62069     -169.891 
-8.54782e-05      7.69449     -34.5162 
-6.81793e-05      9.64697     -46.1760 
1.73604e-05      8.18416     -46.5348 
-1.73189e-05      7.10899      16.6761 
0.000968654      9.15208     -50.1864 
3.45982e-05      4.05188      4.38786 
3.36940e-05      3.38591     -3.38634 
1.72548e-05      1.57889     -20.3862 
0.000312524      5.95214     -118.718 
0.000289969      8.60745     -37.9217 
-4.95955e-05      3.34031     -119.404 
3.40959e-05      6.00966      17.2289 
-0.000449120      7.28146     -55.3496 
1.72064e-05      5.16294     -12.5288 
0.000442534      7.52067     -19.2541 
-3.41566e-05      3.27035      39.0429 
9.82315e-05      4.46337     -116.048 
0.000400715      4.04268      4.54001 
-6.75142e-05      3.11785      121.090 
-3.41562e-05      2.82349     -166.899 
-1.71048e-05      4.79454     -128.734 
-0.000132908      7.09941      16.6992 
-3.35920e-05      4.95299      28.3243 
0.000101374      6.88863     -104.803 
-0.00102759      7.31826     -21.9032 
-1.70526e-05      4.36331     -55.3630 
-5.00732e-05      7.86601     -36.7825 
3.37214e-05      8.19142     -46.5829 
-5.00714e-05      5.87167     -54.4964 
-9.86073e-05      3.11296     -167.571 
-0.000276254      5.33880     -77.8903 
5.04925e-05      4.04191      4.39870 
-0.000146837      6.10447     -86.0548 
-0.000255469      2.81375     -166.853 
-4.98607e-05      6.87053     -82.3888 
5.03617e-05      6.67236     -81.5542 
8.28938e-05      5.06067      10.2441 
-5.00117e-05      6.77549     -67.0679 
-0.000209392      9.65390     -46.1332 
6.49746e-05      6.44363     -111.867 
-0.000355436      4.25913      133.097 
-8.27269e-05      3.27185      38.7966 
1.67470e-05      2.20127      72.5528 
-4.95901e-05      3.41797     -137.253 
-8.22217e-05      7.70273     -34.4740 
-0.000128209      1.19252      17.0674 
6.56065e-05      6.04329     -95.0313 
3.32056e-05      2.58008      179.556 
4.93681e-05      5.66258     -47.5766 
0.000162916      6.88608     -104.722 
-0.000326186      1.89497     -159.939 
4.88949e-05      3.77927     -15.0291 
-0.000110689      5.59732     -71.2413 
-4.88761e-05      2.13588     -96.9919 
-0.000526763      2.59280      165.481 
4.91377e-05      6.89290     -1.66269 
-4.90790e-05      4.22481     -40.9690 
0.000239599      3.85751      141.526 
0.000235374      6.50969     -104.228 
6.43270e-05      3.21629      129.828 
9.58926e-05      6.67090     -81.6391 
-0.000194616      6.55952     -118.401 
3.25378e-05      2.20429      72.3048 
-1.64102e-05      4.78829     -128.641 
-6.44982e-05      3.12303      121.247 
-0.000264827      1.86043     -153.159 
-0.000558824      4.15235     -138.710 
-3.21035e-05      2.38730     -148.707 
3.23552e-05      8.18455     -46.6338 
0.000110661      2.12361      106.131 
6.09346e-05      7.78617     -63.0400 
-1.62677e-05      4.44567      21.3706 
0.000338027      4.70370     -131.553 
-8.01642e-05      2.90264      139.891 
-4.78811e-05      6.78470     -67.1008 
1.62147e-05      6.00011      17.2572 
0.000127229      5.17720     -28.4956 
-6.34025e-05      3.70061     -96.0495 
0.000252416      9.25791     -41.6284 
-4.78073e-05      4.94419      28.3792 
6.38679e-05      8.77402     -36.7524 
0.000188649      6.89320     -1.74578 
3.22496e-05      2.79594      172.189 
-0.000197640      1.73954      70.5234 
-9.53126e-05      3.27965      38.6871 
-0.000187031      3.66973      5.94363 
-1.61484e-05      4.78205     -128.548 
-0.000173440      3.01378     -161.024 
-3.18127e-05      5.93970     -8.13010 
-0.000233869      1.89889      79.9920 
-0.000151937      2.37605      45.6821 
-0.000203244      3.12231      177.797 
-4.79551e-05      6.54597     -118.366 
-0.000110683      7.71098     -34.4320 
0.000232463      6.66736     -102.473 
0.000125252      4.71739     -75.6397 
-3.15958e-05      5.87748     -54.4170 
-0.000543147      6.55073     -118.443 
-0.00105409      7.69884     -62.0370 
-6.17480e-05      2.29732      141.184 
-0.000153370      2.04025     -77.2580 
1.59737e-05      7.69985     -32.9677 
0.000108371     0.876584      145.222 
7.85820e-05      5.05083      10.2643 
0.000232294      6.88355     -104.642 
3.16556e-05      4.59449     -121.199 
-0.000985973      4.19487      136.642 
-1.58758e-05      6.85799     -82.5434 
0.000924323      5.96091     -118.672 
1.58648e-05      2.58017      179.334 
4.68373e-05      5.66196     -47.4336 
-1.58412e-05      3.41063     -137.139 
-0.000689330      8.42686     -34.5576 
-4.66476e-05      1.70485     -170.206 
-0.000256377      3.27200      126.800 
0.000347826      8.76002     -36.7391 
1.57797e-05      5.96572     -118.756 
6.18102e-05      2.80722      172.014 
1.57234e-05     0.992824      63.6930 
-0.000122567      2.90909      139.741 
-6.17533e-05      2.37626      46.0230 
-4.63235e-05      7.08983      16.7225 
0.000182724      4.58594     -121.264 
-6.13550e-05      3.12823      121.404 
1.56306e-05      9.33876     -47.9079 
0.000106312      2.49128     -178.160 
-1.56186e-05      7.58009     -65.3621 
6.18457e-05      7.17408     -70.2011 
-4.61892e-05      6.99537     -72.1867 
-0.000198573      7.32754     -21.8740 
1.55458e-05      5.18599     -28.4429 
4.59771e-05      7.70824     -32.9273 
-3.07468e-05      3.47615     -36.3424 
-0.000192032      3.10319     -167.531 
-0.000390240      4.26597      133.195 
-0.00154686      7.56588     -23.2781 
-1.54881e-05      4.76961     -128.360 
-3.05723e-05      4.93539      28.4344 
-7.64836e-05      3.28746      38.5782 
-0.000136388      7.71923     -34.3900 
0.000224186      3.31869     -154.284 
-4.59152e-05      6.46098     -7.20201 
0.000342734      5.19076     -28.5400 
1.54491e-05      5.05191     -95.3382 
-0.000135497      5.32902     -77.8677 
0.000313081      3.87156      141.502 
-3.06875e-05      6.58878     -50.1722 
-0.000254930      2.58312      165.426 
-0.000121084      9.64669     -46.0920 
0.000196878      8.28747     -55.8689 
-3.06447e-05      2.83637      167.581 
-1.53774e-05      4.76800     -128.528 
4.55860e-05      4.71492     -75.7574 
-0.000179805      6.74248     -70.8664 
-0.000224724      3.00433     -160.962 
-3.04782e-05      3.09613     -15.7420 
-1.53414e-05      7.82768     -45.0518 
3.04386e-05      3.20989      129.691 
9.03086e-05      6.68079     -81.6516 
-1.53142e-05      7.57592     -65.4309 
-3.03771e-05      6.09449     -86.0483 
0.000240824      9.25044     -41.6695 
-0.000165782      2.91529      166.107 
-0.000120915      9.11606     -43.9778 
3.03472e-05      5.04099      10.2845 
1.52647e-05      4.46777     -116.164 
-0.000268535      3.10358      84.6384 
1.52293e-05      2.54880      128.309 
4.52605e-05      5.04195     -95.3488 
-0.000520631      2.59532      165.268 
0.000134935      6.88320     -1.74831 
-0.000119075      3.97555     -136.631 
-0.000281360      6.52838      28.4494 
-3.02231e-05      4.76177     -128.434 
-8.90351e-05      8.09450     -51.2186 
1.51556e-05      7.16467     -70.1740 
0.000104062      2.12085      105.871 
1.51457e-05      2.60048      178.898 
-0.000941140      6.54193     -118.485 
-0.000428195      3.12194      177.981 
0.000177030      8.59342     -37.9101 
0.000514584      2.63053     -169.929 
0.000250927      4.03272      4.55126 
-8.98391e-05      4.09928      33.9614 
-3.01605e-05      6.53717     -118.408 
1.50897e-05      5.66873     -47.3592 
-7.48430e-05      5.05099      38.0043 
8.99394e-05      6.88102     -104.561 
4.50017e-05      2.81853      171.841 
0.000103932      7.16128     -70.2493 
1.50702e-05      7.41386     -29.2273 
-4.47587e-05      5.51225      17.7447 
0.000852747      8.13050     -60.1240 
-0.000469292      7.82244     -27.3185 
-0.000190967      6.80131     -11.2769 
4.48429e-05      4.70523     -75.7275 
-0.000221245      7.29538     -55.3297 
-0.000410999      3.29528      38.4697 
1.49867e-05      2.07077      22.7263 
-2.97510e-05      3.48421     -36.2450 
-0.000453052      7.39990     -114.937 
-0.000132748      4.22404     -137.015 
-7.39020e-05      7.08025      16.7458 
-0.000323383      9.10886     -44.0214 
-0.000220827      1.89082      79.6409 
0.000132209      5.03922      10.1726 
-1.49424e-05      3.40331     -137.024 
1.49422e-05      7.71664     -32.8869 
1.49281e-05      2.21995      71.8915 
-1.48990e-05      4.23236     -40.8803 
-7.39862e-05      4.31356      45.5635 
1.48908e-05      6.73595     -18.9729 
1.48819e-05      8.14808     -53.3832 
-1.48853e-05      7.68532     -38.5550 
1.48728e-05      2.61069      178.683 
0.000103105      6.65760     -102.491 
0.000103679      8.28186     -55.9262 
4.45437e-05      6.37217     -80.7890 
-1.48801e-05      3.11448      121.342 
0.000118286      6.89070     -104.540 
2.96485e-05      8.60131     -37.8691 
0.000146370      6.51939     -104.207 
-2.96845e-05      2.92741      165.964 
-8.83451e-05      7.72748     -34.3481 
-5.91387e-05      5.86560     -7.14925 
-0.000177029      9.51154     -44.1907 
4.40910e-05      7.40513     -29.2650 
-2.95877e-05      3.67865      5.77258 
-1.47962e-05      6.78081     -67.1786 
0.000117872      9.26456     -41.6746 
0.000205194      6.37377     -80.7002 
-0.000481921      5.04311      38.0743 
-4.42965e-05      2.92500      166.154 
-1.47957e-05      2.90147      139.613 
-4.40671e-05      2.03806     -77.5322 
1.47985e-05      6.43435     -111.901 
-8.79823e-05      4.09660      34.1556 
0.000247933      4.58075     -121.157 
-1.47717e-05      7.57177     -65.4997 
-0.000204126      3.10266      84.8223 
1.47604e-05      9.33206     -47.9535 
5.88892e-05      6.88352     -1.83151 
2.94561e-05      2.85260      171.330 
-0.000248105      1.22654      155.943 
-0.000699289      2.93711      166.011 
-0.000102114      3.29515     -161.235 
-0.000452029      3.68989      147.731 
-7.30517e-05      3.11970      121.499 
1.47239e-05      3.78188     -15.1754 
-1.47241e-05      4.75557     -128.340 
0.000950094      8.26238     -56.0022 
-7.30709e-05      3.39600     -136.909 
-2.93246e-05      4.23993     -40.7918 
-0.000175407      3.72345      54.7306 
-0.000659142      7.32961      16.1601 
-2.93179e-05      7.24957     -63.8944 
-0.000174771      8.28604     -31.8295 
-1.46855e-05      1.85594     -153.435 
-0.000247661      5.85444     -7.06432 
1.46924e-05      2.22308      71.6466 
0.000378771      6.88820     -104.460 
-7.29332e-05      5.52178      17.7130 
-8.74653e-05      1.74290      70.2135 
1.46877e-05      8.12813     -53.4544 
-0.000873666      4.20174      136.543 
-4.38224e-05      2.90795      139.463 
0.000175210      9.25709     -41.7158 
7.28823e-05      7.77273     -63.0723 
-0.000670094      9.50437     -44.2327 
-0.000131235      3.00108     -161.142 
1.46602e-05      2.06693      22.4706 
0.000218438      6.87352     -1.83417 
4.38320e-05      2.86400      171.163 
-0.000291087      4.27282      133.293 
-0.000189433      7.73313     -34.4093 
5.82461e-05      8.13409     -53.3978 
-2.92141e-05      1.88558     -159.835 
0.000436994      8.76804     -36.7000 
0.000394412      7.52682     -19.1571 
-0.000350726      6.73303     -70.8385 
-0.000102047      8.41863     -34.5962 
1.46179e-05      2.62122      178.251 
-1.46146e-05      7.07357      16.8467 
-0.000159974      1.88905     -159.550 
-1.45963e-05      7.33055     -42.8994 
-0.00137287      2.58565      165.211 
-0.000261880      7.49937     -113.831 
0.000290935      6.18049     -116.524 
-1.45807e-05      4.74937     -128.245 
-1.45660e-05      7.06400      16.8702 
-0.000145523      7.70154      22.6027 
-8.71910e-05      3.96829     -136.532 
0.000101734      2.11814      105.611 
-0.000481267      3.72924      54.6052 
8.71861e-05      2.86555      170.965 
-0.000334762      4.18760      136.548 
0.000101715      3.32770     -154.359 
0.000101688      4.64578     -74.6475 
4.36412e-05      6.86283      24.9967 
-0.000233438      6.53717      28.4076 
0.000276340      3.88561      141.478 
-0.000102219      1.84700     -153.296 
-0.000130801      7.33922      16.1384 
0.000159778      6.36391     -80.6857 
8.72152e-05      4.65279     -74.7989 
0.000291045      5.19555     -28.6369 
0.000305148      9.27121     -41.7208 
-0.000305146      3.12160      178.164 
-4.35745e-05      4.74318     -128.150 
-0.000203434      8.43254     -34.6135 
1.45304e-05      2.87543      170.996 
-0.000116430      7.28969     -55.3943 
-0.000557110      7.14438      5.62281 
-4.35626e-05      3.38870     -136.794 
0.000204512      5.02937      10.1928 
-0.000321192      8.53756     -47.7534 
0.000116143      6.85377      25.0320 
-0.00121715      7.69770      22.5340 
-5.81291e-05      5.54734     -35.6097 
-0.000305688      2.99162     -161.081 
-0.00151130      6.53315     -118.526 
1.45157e-05      8.57938     -37.8984 
0.000261755      6.86353     -1.83684 
-1.45217e-05      2.90036      139.334 
-7.26516e-05      4.73701     -128.055 
-0.000746721      7.50341     -113.900 
-0.000352440      6.81112     -11.2604 
-0.000541910      7.82704     -27.3835 
0.000203627      2.87701      170.800 
-0.000379958      9.02308     -45.5388 
8.72975e-05      7.76820     -63.1381 
1.45279e-05      2.48129     -178.152 
-2.90552e-05      3.28001      126.695 
4.36531e-05      8.57149     -37.9395 
0.000542023      6.88571     -104.379 
-1.45267e-05      7.26736     -63.7875 
0.000454100      6.36553     -80.5969 
7.35105e-05      4.45584     -125.224 
1.45296e-05      4.03352      4.69286 
-0.000616944      3.69524      147.600 
2.90849e-05      1.58231     -67.3244 
5.81246e-05      9.68754     -42.7829 
-7.27914e-05      3.38186     -136.917 
0.000499458      6.55229     -115.783 
-2.92884e-05      3.31604     -93.4578 
0.000175051      6.84471      25.0675 
-1.45274e-05      3.12493      121.656 
-0.000352922      4.27968      133.390 
-0.000542819      6.58833      25.6316 
0.000146231      4.48219     -128.660 
5.83123e-05      2.96274     -141.854 
0.000103010      1.59540     -67.1315 
-0.000190981      1.87968     -159.444 
-2.91232e-05      3.44420     -99.1888 
2.91386e-05      6.52908     -104.185 
-1.45447e-05      5.53781      17.5515 
-5.82504e-05      4.73086     -127.960 
0.000277459      9.28533     -41.7258 
5.83237e-05      3.33242     -154.588 
0.000324028      4.65018     -74.9178 
0.000176434      9.68075     -42.7395 
-0.000516024      3.12130      178.348 
0.000161903      8.44400     -53.1844 
0.000191387      3.76384      124.281 
0.000116936      5.95615      30.9143 
-2.91634e-05      2.90689      139.185 
-0.000132329      5.84452     -7.07638 
-0.000560967      7.39083     -114.970 
0.000162430      2.11547      105.350 
0.000339516      6.17603     -116.441 
0.000191523      2.64038     -169.967 
-1.45751e-05      3.29194     -161.400 
0.000161942      4.57220     -121.222 
-0.000176001      4.72298     -128.035 
2.92411e-05      5.97947     -114.293 
-1.46045e-05      3.03771      34.9457 
0.000309885      6.85353     -1.83952 
0.000324740      3.89967      141.455 
0.000250485      2.88849      170.636 
-0.000531767      2.94681      166.058 
-0.000118015      3.04592      34.8379 
-0.000589507      4.19448      136.449 
-0.000117961      3.37457     -136.801 
-0.000251385      7.40241      16.1580 
-0.000384210      7.30899     -21.9324 
-2.92641e-05      8.19103     -35.9605 
-1.46170e-05      3.09343     -167.491 
-1.46434e-05      7.31049      24.9175 
0.000148032      8.23714     -30.7371 
8.84615e-05      7.75477     -63.1706 
-7.34889e-05      7.31956      24.8845 
-2.93283e-05      3.10105     -167.712 
4.41856e-05      6.62514     -54.8946 
-0.000206705      2.98839     -161.262 
-1.46570e-05      8.27227     -31.8072 
0.000236934      5.20912     -28.6807 
-1.46787e-05      3.96104     -136.432 
7.38508e-05      3.34145     -154.662 
1.46645e-05      4.02356      4.70451 
-0.000118250      8.19913     -35.9195 
4.43191e-05      2.95488     -141.734 
0.000192266      6.83565      25.1030 
-0.000207039      9.51851     -44.2338 
0.000162334      8.77606     -36.6610 
0.000355368      9.27787     -41.7669 
7.39923e-05      5.98859     -114.254 
0.000148237      5.94757      30.9638 
-0.000222847      2.57344      165.370 
-5.92207e-05      2.91343      139.036 
-8.90178e-05      3.09128     -167.672 
7.40999e-05      2.29225     -119.249 
-1.47482e-05      3.29401      126.731 
-1.47598e-05      3.28877     -161.565 
-8.91363e-05      5.03525      38.1444 
-0.000118864      3.73504      54.4802 
-0.000133810      7.32864      24.8516 
-0.000193335      4.71682     -127.939 
-5.92626e-05      6.31926      26.2001 
-2.96461e-05      7.74138     -34.3675 
-2.96093e-05      7.27178     -63.7168 
-0.000119014      9.00894     -45.5397 
4.46183e-05      4.48844     -128.759 
-4.46030e-05      1.84253     -153.574 
1.48108e-05      2.12777      105.539 
7.45191e-05      6.51153     -10.6197 
-0.000104234      7.32001      16.1819 
-1.48315e-05      1.73623      70.8345 
-0.000119340      6.59735      25.5940 
-0.000163952      4.18035      136.454 
8.95258e-05      8.79005     -36.6744 
-7.45540e-05      8.72521     -41.0500 
-7.46110e-05      6.31471      26.3216 
-1.48741e-05      3.96141     -136.637 
-8.95634e-05      3.55958      144.837 
-0.000104519      7.50747     -113.970 
5.96585e-05      6.89788     -104.439 
-7.46335e-05      2.97893     -161.200 
-2.98677e-05      9.51135     -44.2759 
-7.46666e-05      7.84052     -27.4148 
5.97372e-05      6.36717     -80.5081 
5.98028e-05      8.26797     -55.9448 
4.48229e-05      2.90000      170.473 
-2.98710e-05      5.83337     -6.99101 
2.99143e-05      2.94869     -141.886 
-1.49492e-05      3.28562     -161.730 
1.49568e-05      7.52354     -19.0852 
1.49578e-05      4.56702     -121.114 
2.99238e-05      9.29199     -41.7718 
1.49655e-05      6.89540     -104.359 
-1.49818e-05      7.69387      22.4652 
-1.49749e-05      2.90589      138.907 
0.000538366      1.57305     -69.1455 
0.000709921      2.22443     -55.8099 
0.000426969      1.11288     -40.9922 
0.000511438      2.08216     -69.4762 
0.000113262     0.141421      135.000 
0.000921510      1.57664     -68.8059 
0.000302294     0.148661      137.726 
0.000207519      1.22801     -73.9264 
0.000358424      1.12045     -40.6568 
0.000142140      1.02786     -72.4465 
0.000491991     0.802247     -85.7108 
0.000319350      2.08569     -69.2189 
3.88657e-05      1.01833     -72.2768 
2.51757e-05     0.971236     -73.2443 
6.03735e-05      1.04043     -72.0875 
0.000797378      2.21883     -56.0235 
1.21690e-05     0.958801     -73.6442 
0.000100849     0.961665     -73.0725 
0.000201625     0.156205      140.194 
6.75695e-05      1.05304     -71.7371 
0.000199997      1.22528     -74.3758 
9.39581e-05      1.06569     -71.3950 
0.000585166     0.792275     -85.6568 
7.88118e-05     0.952103     -72.8973 
0.000247774      2.08926     -68.9625 
0.000432333      1.10635     -40.6013 
0.000190361      1.07838     -71.0610 
5.30327e-05     0.164012      142.431 
7.34731e-05     0.158114      145.305 
0.000166887     0.955092     -72.3239 
6.09167e-05      1.09110     -70.7347 
2.53471e-05      1.11396     -40.2666 
3.46909e-05      1.20333     -68.5523 
0.000137871     0.166433      147.265 
2.51071e-05      1.22262     -74.8271 
4.03826e-05      1.19403     -68.3768 
7.03867e-05      1.23227     -74.9488 
9.24350e-05      2.09287     -68.7070 
0.000228313      1.22972     -75.3987 
5.19619e-05      1.20702     -68.1104 
0.000155336     0.174929      149.036 
0.000152376     0.958175     -71.7541 
2.16629e-05      2.10219     -68.8059 
0.000424655      2.12116     -65.4890 
0.000113744      1.19775     -67.9321 
9.08945e-05      2.09859     -69.0605 
2.72358e-05     0.788543     -77.5500 
0.000459739      1.58028     -68.4679 
8.18095e-05     0.790759     -76.8425 
0.000117205      2.19939     -56.3099 
0.000232640     0.187883      154.799 
9.81698e-05      2.10794     -69.1576 
1.72995e-05     0.967678     -71.9395 
0.000102158     0.961353     -71.1881 
0.000375537      1.05262     -38.8298 
0.000186668      1.21078     -67.6713 
5.94471e-05      1.06254     -71.9061 
3.62262e-05      1.22723     -75.8505 
1.54533e-05      1.09877     -40.9407 
7.37093e-05     0.793095     -76.1390 
9.90150e-06      2.10440     -69.4121 
3.74374e-05      1.09786     -41.6769 
0.000148034      1.23693     -75.9638 
0.000353561      2.11376     -69.5074 
0.000200471     0.782304     -85.6013 
8.07551e-05     0.196977      156.038 
4.56482e-06      1.20154     -67.4902 
5.17342e-05     0.970824     -71.3784 
-0.00112154     0.270185      141.009 
1.30990e-05      1.04995     -72.2553 
4.35961e-06      1.09713     -42.4142 
3.66630e-05      1.08977     -42.7688 
8.33629e-06      1.03740     -72.6130 
0.000228500     0.183576      150.642 
3.84767e-05     0.980306     -71.5651 
0.000155353     0.795550     -75.4397 
9.93796e-06      1.01533     -72.8143 
9.61950e-05      1.00578     -72.6460 
2.91600e-05      1.08931     -43.5121 
5.13098e-05      1.23454     -76.4140 
4.27379e-05     0.974064     -70.8210 
3.52503e-06     0.989798     -71.7481 
0.000145219      2.12313     -69.6019 
2.33115e-05      1.08208     -43.8767 
6.56467e-06      2.20495     -56.0937 
0.000232556      2.11206     -65.3764 
7.20724e-05     0.148661      132.274 
6.41734e-05      1.08190     -44.6255 
-0.000374794      1.60649     -71.1139 
0.000132101     0.192354      152.103 
-0.000260186      1.30384     -69.3411 
0.000399778     0.967988     -70.0675 
6.67155e-05      1.22004     -67.8498 
2.66868e-05      2.16668     -57.6302 
1.97494e-05      2.23007     -55.5973 
-0.000174567      2.20801     -53.2858 
4.11447e-05      1.59327     -68.2654 
6.50153e-05     0.798123     -74.7449 
0.000241025     0.977395     -70.2673 
0.000145682     0.155563      135.000 
1.90149e-05      2.23573     -55.3859 
1.03936e-05      1.01242     -73.3550 
2.34602e-05      2.24143     -55.1755 
0.000102337      1.58959     -68.6002 
6.94003e-05      1.22931     -68.0255 
-0.000169629     0.857030     -78.5590 
-0.000377364    0.0632456      71.5651 
5.23703e-05      2.24715     -54.9662 
4.41453e-05      1.00960     -73.8987 
-0.000160693      2.13284     -56.0864 
0.000160710     0.201246      153.435 
-0.000349904      1.08259     -64.8552 
0.000542306     0.150000      126.870 
5.72457e-05      2.25291     -54.7580 
-0.000548941     0.859069     -77.9052 
2.11642e-05      1.08904     -44.2559 
5.61205e-05      1.00688     -74.4454 
0.000106217      1.58597     -68.9366 
4.82041e-05      2.23323     -55.0290 
3.49637e-05      1.08894     -45.0000 
0.000110775      2.23897     -54.8193 
2.57855e-05      1.23859     -68.1986 
-3.04785e-05    0.0608276      80.5377 
-5.33589e-05      2.18504     -66.2505 
-7.47531e-05    0.0600000      90.0000 
8.50864e-06      1.04484     -39.1737 
3.17965e-05      1.58240     -69.2744 
1.05383e-05      1.00424     -74.9951 
-2.51907e-05    0.0608276      99.4623 
1.46815e-05      2.11729     -69.2539 
! Tentative model.
! Flux (Jy) Radius (mas)  Theta (deg)  Major (mas)  Axial ratio   Phi (deg) T \
! Freq (Hz)     SpecIndex
0.000666031      2.12269      12.7923 
-0.000638710      1.68962      106.504 
0.000113551     0.926984     -132.814 
7.61428e-05     0.919674     -133.238 
-5.78319e-05      1.45341     -34.3461 
0.000376071      2.12445      21.2505 
-0.000212628      1.92925     -160.626 
-0.000111335      1.97226     -26.1753 
-0.000162720      2.10770     -94.8991 
-0.000429497      1.46168     -34.1249 
0.000367904     0.983870      116.565 
0.000374921      2.06167      169.944 
-0.000432543      1.93869     -160.724 
0.000349460     0.926553     -133.688 
0.000200516      3.25380      133.506 
0.000178393      2.26921      128.739 
8.67576e-05      1.82332      96.9301 
-0.000150466      1.98124     -26.0477 
-0.000410377      2.55331      92.9184 
0.000186879      1.27945     -158.448 
-0.000272357      2.66595     -160.953 
-0.000411580      2.62093      50.4183 
0.000261438      1.82455      97.2419 
-0.000113909      3.02552      39.6358 
-8.28116e-05      2.15629     -49.5140 
-0.000183776      1.18870      169.824 
-6.48804e-05      2.10687     -94.6281 
0.000172689      2.20193      8.09330 
-0.000167214      2.81571      55.1247 
-1.63650e-05      1.68885     -72.4234 
-0.000137572      2.06349     -146.464 
-0.000355641      1.68585     -72.7473 
-0.000162849      3.09251      142.093 
-1.60032e-05      1.84353      10.9442 
7.59072e-05      2.13244      12.7328 
-0.000179381      2.15745     -49.8884 
-0.000103071      1.85335      10.8855 
-0.000176763      1.98588     -25.6618 
9.16922e-05      2.28974     -172.471 
-3.09720e-05      1.55425      82.2348 
-4.60434e-05      2.09612     -94.3777 
-4.34722e-05      1.87843     -154.117 
-0.000238879      1.68003      106.601 
-3.06432e-05      1.67720      106.274 
-0.000248084      3.10040      142.206 
-0.000131988      1.88743     -154.250 
4.49964e-05      2.54435      127.816 
-0.000352730      3.01783      39.7570 
0.000235255      3.26794      133.512 
0.000486900      2.98719      49.7524 
0.000155860      2.21206     -165.336 
8.85535e-05      1.87067     -88.4684 
0.000208848      2.59422      170.683 
-0.000358430      1.99489     -25.5374 
-0.000129462      2.09538     -94.1051 
-8.51850e-05      1.55563      81.8699 
4.37216e-05      1.64210      32.8191 
1.46856e-05      2.11835      102.265 
5.78358e-05      2.25869     -172.623 
5.70557e-05      3.52185      44.0797 
-0.000222507      2.67541     -161.023 
0.000123792      2.20336      8.35075 
0.000977246      3.52904      43.9667 
9.79250e-05      2.12050      102.529 
0.000450801      2.89000      28.0725 
0.000120683      1.27016     -158.282 
-0.000500108      2.54018     -73.0631 
0.000230721      1.88096     -88.1720 
2.82911e-05      2.13084      1.61354 
-5.56394e-05      2.60801      25.1894 
8.99074e-05      2.55049      127.993 
0.000282222      2.14084      1.60600 
8.27568e-05      1.88066     -88.4765 
0.000317348      1.63371      33.0092 
6.78033e-05      2.27982     -172.439 
-1.40520e-05      2.24270      150.921 
0.000276157     0.933488     -134.132 
1.39721e-05      2.24878     -172.591 
-0.000167007      1.22156      155.323 
-0.000105870      1.46441     -33.5816 
-0.000318003      2.24758      150.698 
4.08817e-05      2.20783     -172.714 
-8.03017e-05      2.15102     -50.0921 
4.08891e-05      2.80744      149.141 
-0.000126367      2.05516     -146.310 
0.000357655      1.83576      97.5121 
-0.000152827      2.34094      123.147 
-6.63555e-05      3.10831      142.319 
-0.000152637      2.09468     -93.8323 
0.000233739     0.992824      116.307 
-3.95175e-05      1.53056     -99.4008 
0.000101842      2.12085      20.9987 
-5.28011e-05      1.87385     -153.708 
3.87139e-05     0.997296      116.822 
1.34601e-05      2.26296      128.541 
-0.000115040      2.62132      25.2942 
-2.66000e-05      2.81325      54.8411 
-2.56374e-05      2.31815      78.3023 
0.000115270      1.86207     -37.3622 
9.57523e-05      2.29941      28.0139 
-2.66040e-05      1.90379      80.9335 
6.53899e-05      2.12269      102.792 
0.000238804      2.55000     -36.8699 
5.16260e-05      2.59586      170.465 
-5.11614e-05      1.85526      11.1888 
-0.000137372      2.10924     -108.521 
0.000102058      2.82115      149.071 
-2.61128e-05      1.19050      169.351 
5.08969e-05      2.19791     -172.681 
-0.000100357      1.99965     -25.1554 
-0.000175795      1.90539      80.6365 
-0.000392727      1.68291      106.928 
-0.000342265      3.04818     -33.2209 
-9.78603e-05      3.11014      142.577 
-0.000182600      2.80751      55.0080 
-8.72104e-05      2.40169      64.0751 
0.000594215      2.20955     -165.586 
3.79386e-05      2.26991     -172.405 
-0.000180130      2.62865      50.5572 
7.02322e-05      2.04453      136.784 
3.78911e-05      2.71207      114.392 
-0.000107401      1.88282     -153.843 
-2.52628e-05      1.31700     -103.614 
0.000308919      2.11627      55.7843 
-2.44121e-05      1.50456      150.539 
0.000105434      1.93610     -130.601 
-0.000155943      2.14758      162.662 
0.000108274      2.29107     -172.224 
-2.51158e-05      2.14462     -50.2970 
4.96822e-05      2.12492      103.055 
-6.16165e-05      3.46667      136.870 
1.25540e-05      2.20484      8.60786 
3.70901e-05      2.03335     -124.784 
-0.000223466      1.45609     -33.7992 
-0.000361641     0.622656      119.859 
-0.000413944      1.92595     -160.907 
-6.09619e-05      1.49696     -110.735 
-0.000103971      1.31469     -103.191 
1.23148e-05      2.21779      9.08007 
0.000196744      2.69883      114.286 
-3.61563e-05      2.13965     -50.8802 
-0.000126591      2.46976     -161.345 
-1.22111e-05      1.99060     -25.2777 
1.21739e-05      2.20635      8.86462 
0.000730510      2.81258      148.966 
-0.000202240      2.63036      25.2011 
1.20735e-05      2.12720      103.318 
8.13159e-05      2.02766     -124.552 
-0.000105004      2.49756     -98.5194 
5.74558e-05      1.87003     -37.1763 
2.37311e-05      2.18799     -172.648 
0.000109468      2.21939      9.33500 
-0.000158258      3.02424      39.9026 
3.55627e-05      2.11747      103.380 
-0.000149028      3.48080      136.863 
-0.000151778      2.41506      63.9654 
-4.67446e-05      1.50053     -111.092 
-9.17260e-05      3.10221      142.465 
0.000379975      1.89095     -88.1817 
3.49753e-05      1.10073     -155.298 
7.87042e-05      2.46759     -12.4029 
-2.33989e-05      2.13335     -51.0885 
-1.17573e-05      1.86507      11.1292 
-0.000139187      2.09404     -93.5593 
-0.000254050      2.10609     -108.263 
0.000193776      3.31965     -42.4362 
-2.30712e-05      2.56757     -64.6326 
6.84041e-05      2.11981      103.643 
2.28465e-05      2.03725      136.591 
2.31781e-05      2.14058      1.33844 
-8.59370e-05      1.68291     -73.0725 
0.000164139      2.55801     -36.7355 
1.15633e-05      3.27519      133.392 
-7.66820e-05      2.50745     -98.4856 
-2.29033e-05      2.12709     -51.2981 
0.000244493      2.15058      1.33222 
-1.14619e-05      1.55708      81.5056 
-0.000225413      2.06073     -146.079 
6.72075e-05      2.28116     -172.190 
-4.45119e-05      1.21742      155.751 
-1.14253e-05      2.08346     -93.3019 
0.000119627      1.09165     -155.078 
4.43755e-05      2.17807     -172.614 
-7.76905e-05      1.50416     -111.448 
-6.62418e-05      2.23886      150.573 
0.000295634      2.99661      122.046 
1.13556e-05      2.16816      7.42002 
-0.000199793      2.16012      162.488 
3.27161e-05      2.11152      21.0960 
1.13135e-05      3.50865      133.383 
-1.13123e-05      2.57422      17.8719 
-0.000329994      2.62231      50.7260 
-3.36284e-05      2.12085     -51.5090 
-7.47261e-05      2.00664      121.551 
-1.12813e-05      1.98879      32.8910 
0.000206209      1.53574     -21.3857 
4.31885e-05      2.05183      169.895 
-6.52070e-05      2.56330     -64.8346 
-5.95191e-05      1.18068      169.261 
2.21516e-05      2.15697      7.19091 
4.35554e-05      2.53645      127.954 
-0.000117020      2.58374      17.8038 
-0.000162742      1.99424      33.1323 
0.000355483      1.83535     -41.2447 
4.12074e-05      2.22104      9.58955 
0.000157814      2.12219      103.905 
3.26822e-05      3.51552      133.502 
-3.13828e-05      1.11396     -130.267 
-2.18775e-05      2.11464     -51.7210 
6.31940e-05      2.02200     -124.319 
-7.29675e-05      1.68505      47.8864 
0.000137177      1.83709      97.8214 
2.17008e-05      2.29140      145.131 
0.000103705      2.75115     -120.107 
7.43428e-05      2.30235     -172.011 
2.14071e-05      2.76221      126.165 
-0.000145555      2.46028     -161.270 
-0.000313547      1.68585      107.253 
-4.26218e-05      2.10846     -51.9343 
2.14102e-05      1.88807     -36.3844 
2.13846e-05      2.14581      6.95942 
-9.42332e-05      2.54136     -42.2889 
-0.000124242      1.50785     -111.801 
-1.06613e-05      2.49610     -98.2924 
7.20842e-05      2.16816     -172.580 
-1.06409e-05      2.61457      50.5872 
0.000107138      2.35213     -129.307 
4.17408e-05      3.50751      134.307 
-1.05598e-05      1.22654      155.943 
7.00838e-05      2.27748      145.193 
3.12518e-05      1.89613     -36.2051 
-0.000128516      1.17085      169.170 
-8.67722e-05      1.47899      51.0377 
-6.04295e-05      1.32442     -103.092 
2.08753e-05     0.940479     -134.569 
-0.000177738      2.50599     -98.2594 
-3.07816e-05      1.84716     -19.6121 
2.05247e-05     0.786448      78.2614 
-5.12845e-05      2.63941      25.1087 
0.000112435      2.13469      6.72552 
-5.13164e-05      2.10231     -52.1489 
2.06452e-05      2.47736     -12.3532 
1.04116e-05      2.29059      28.1313 
-8.96709e-05      1.22250      156.371 
7.82986e-05      2.54262      128.132 
1.03510e-05      1.08259     -154.855 
7.60458e-05     0.380526     -3.01279 
-9.74017e-05      3.03066      40.0476 
0.000137880      2.29244     -171.976 
-7.97978e-05      2.24379      150.350 
4.00369e-05      2.23591      72.2944 
0.000182896      2.56603     -36.6020 
3.97901e-05      2.77029      126.043 
1.02363e-05      3.51467      134.193 
-3.95798e-05      2.55906     -65.0372 
1.81473e-05      1.97124     -2.03503 
0.000248631      1.84838      98.0863 
2.98487e-05     0.933381     -135.000 
1.01733e-05      1.90421     -36.0274 
-5.98586e-05      1.45890     -33.2544 
-0.000211554      2.54810     -42.4552 
0.000145173      3.52165      134.310 
0.000160798      1.98091     -1.73570 
-6.82308e-05      2.52400      107.286 
4.97150e-05      1.91460     -35.4333 
0.000104434      1.07787     -154.148 
-1.01144e-05     0.826196      128.118 
5.87090e-05      2.55071     -178.652 
-0.000266622      2.65272      25.2126 
-5.91723e-05      2.09619     -52.3647 
-0.000160144      2.59326      17.7363 
2.94379e-05      2.45569     -12.2251 
-5.90121e-05     0.837616      123.311 
-1.98352e-05      2.00142      121.307 
9.92565e-06      2.10219      21.1941 
-9.52228e-05      2.45709     -108.509 
9.44473e-05      2.01638     -124.084 
-9.57395e-05      1.51159     -112.153 
-9.23326e-05      2.55384      93.1425 
0.000275229      2.12462      104.167 
0.000309235      3.31228     -42.5530 
0.000182820      2.65136     -74.9155 
1.93152e-05      2.23090      9.54677 
6.68792e-05      2.17938     -172.353 
0.000155151      2.70296      114.479 
6.61221e-05      2.75481     -119.822 
0.000139311      2.14037      1.07082 
-3.81101e-05      1.98769      121.211 
5.65951e-05      1.92276     -35.2606 
-9.70794e-06      2.41946      63.7527 
0.000413182      3.18813     -138.560 
-6.57843e-05      2.18220      162.395 
0.000172614     0.574891      40.0608 
-2.86650e-05      2.10535     -94.0856 
3.73922e-05      2.98605      49.4820 
-7.49911e-05      1.45055     -33.4710 
0.000134721      2.23289      72.5388 
-0.000448137      3.48811     -43.0251 
-4.77021e-05      2.09010     -52.5818 
-5.69819e-05      3.08462      141.978 
-0.000187532     0.843149      123.879 
0.000268035      2.59754     -170.248 
5.32588e-05      2.12361      6.48917 
-9.61709e-06      1.68003     -73.3988 
8.27863e-05     0.440454     -87.3974 
0.000126746      2.46546     -12.1759 
1.89864e-05      3.06204      127.169 
-0.000108792      2.17938     -97.6468 
-0.000222555      1.21852      156.801 
-3.72634e-05      2.25249      150.476 
-9.46748e-06      1.67836      48.1397 
9.45181e-06      2.77195     -113.606 
0.000158802      2.56070     -178.657 
-9.20316e-05      2.61599      50.8955 
-9.41901e-06     0.834086      127.694 
2.80491e-05      1.53942     -21.7323 
2.79789e-05      2.16832      14.4208 
0.000282325      2.13016      55.7131 
-9.38223e-06      2.39134     -1.91713 
9.91739e-05      3.06809      127.318 
-6.47219e-05      2.08403     -52.8002 
5.52725e-05      2.28254     -171.941 
6.37450e-05      2.77714     -113.334 
9.33487e-06      2.09287      21.2930 
-6.11822e-05      1.84114     -20.0097 
0.000187586      3.52864      134.426 
0.000168588      2.26927      145.049 
-2.74896e-05      2.11684     -94.6063 
-5.49655e-05      3.07675      141.864 
-3.63613e-05      1.32220     -102.670 
-1.74199e-05      1.87830     -153.435 
-9.26260e-06      2.49467     -98.0651 
-7.04147e-05      2.52105      107.069 
1.83493e-05      2.16947     -172.318 
0.000239645      1.53013     -21.8709 
0.000150064      2.17083      14.6764 
-8.04580e-05      1.51539     -112.504 
-9.19791e-06      2.50458     -98.0330 
-9.18801e-06      2.55486     -65.2405 
-9.17843e-06     0.840238      128.234 
-7.86165e-05      2.05244     -145.923 
-3.61539e-05      2.46658     -108.435 
1.82512e-05      2.25144     -172.086 
-2.69898e-05      2.40133     -1.90915 
8.76362e-05     0.842021      142.722 
0.000270112      1.84700      97.7791 
-7.15248e-05      2.49329     -97.8376 
-1.77400e-05      3.04271     -33.0633 
-9.13140e-06      1.16103      169.077 
2.71030e-05     0.781025      166.675 
0.000113625      1.99090     -1.72699 
-5.27943e-05      3.03710      40.1920 
4.37271e-05      2.54880      128.309 
-0.000106380      2.07800     -53.0198 
-0.000280793      2.55486     -42.6207 
7.80238e-05     0.979439      116.042 
9.04999e-06      2.20055     -172.164 
0.000316593      2.01080     -123.848 
-1.80281e-05      2.59915      140.307 
4.46402e-05      2.24154     -172.051 
0.000109524      2.74985     -119.642 
-4.45000e-05      3.06889      141.748 
-8.98438e-06      1.44779     -34.0193 
8.97213e-06      2.08355      21.3929 
-3.45760e-05      2.17267      162.316 
-8.94275e-06      1.98252      120.964 
-0.000145312      2.60824      50.7570 
-0.000158964      2.10297     -108.004 
7.47344e-05      3.24164     -47.5004 
0.000142659      2.57406     -36.4692 
-3.50032e-05      2.25630      150.822 
-0.000113089      2.60686      140.448 
-6.96016e-05      1.43951     -34.2420 
1.72219e-05      1.93093     -35.0893 
-4.35303e-05      2.12850     -95.1213 
0.000150288     0.793095      166.139 
-0.000135474      3.49494      136.855 
1.76450e-05      2.19064     -172.129 
-4.36998e-05      2.45394     -108.287 
0.000217545      2.17518     -8.72614 
7.82550e-05      2.23164     -172.015 
4.26129e-05      2.99256      49.3364 
-9.99437e-05      1.57877      64.0842 
8.50945e-05      2.78632     -113.253 
1.74749e-05      1.90129     -87.8901 
0.000149750      2.15037      1.06585 
-7.78319e-05      3.06105      141.633 
-2.59991e-05      1.30817     -101.911 
0.000132541     0.450111     -88.7270 
1.72556e-05      2.12709      104.428 
-5.12413e-05      2.49195     -97.6098 
-8.34119e-05      2.60279      17.6692 
-4.96408e-05      2.00808      33.2153 
0.000181927      3.00193      122.208 
-8.65338e-06      1.44222     -33.6901 
-2.53758e-05      2.41133     -1.90124 
0.000229196      2.21923     -165.651 
-0.000155758      2.46343     -108.214 
7.60416e-05      2.47524     -12.1271 
-0.000172447      2.07200     -53.2407 
-0.000107094      1.51924     -112.852 
8.21203e-05      1.90095     -88.1913 
-1.68611e-05      2.45709     -161.491 
8.58234e-06      1.62828      32.7141 
0.000134427      2.22173     -171.979 
1.69862e-05      1.07331     -153.435 
0.000268922      3.53565      134.542 
-1.69182e-05      2.16566     -96.8953 
4.96195e-05      3.07417      127.466 
8.53000e-06      2.06495      21.5953 
9.81849e-05      3.08021     -41.9734 
-4.99349e-05      2.14033     -95.6307 
-5.04327e-05      3.05321      141.516 
-4.15703e-05      2.26504      150.945 
2.50290e-05      1.76570     -14.4298 
0.000267120      3.30492     -42.6702 
-3.35708e-05      1.30614     -101.482 
-0.000156190      2.61457      140.587 
0.000121844     0.576281      38.6598 
-2.48985e-05      1.96125     -177.955 
-2.52061e-05      1.43126     -34.4673 
-0.000218067      2.67507      25.2239 
7.33749e-05      2.70712      114.672 
8.43475e-06     0.390512     -2.93567 
-4.85848e-05      3.17616      143.707 
5.64632e-05      2.89472      28.2471 
0.000114314      2.16116      14.7436 
-0.000354844      3.48129     -42.9047 
-0.000129834      1.43391     -33.9117 
-2.46985e-05      3.04475      40.0706 
-5.63797e-05      2.70703     -161.030 
8.35900e-06      1.63670      32.5249 
8.35957e-06      2.05565      21.6979 
-3.25770e-05      2.33257      123.281 
-3.31131e-05      2.49064     -97.3818 
0.000104914      2.34955     -120.713 
-8.86332e-05      1.21462      157.235 
-9.80233e-05      3.03916      141.546 
-4.89312e-05      2.31767      39.0459 
0.000145557      2.21183     -171.943 
-8.26152e-06      1.29248     -100.701 
1.64497e-05     0.850000      143.130 
4.81590e-05      1.08227     -153.672 
0.000105063      2.48502     -12.0787 
8.81833e-05      2.56096     -178.434 
-5.67838e-05      1.29066     -100.265 
-7.98553e-05      2.15232     -96.1344 
8.20065e-06      2.04636      21.8014 
7.20115e-05      2.79029     -113.441 
-4.78379e-05      2.51813      106.852 
-7.99629e-05      2.23379      176.664 
-3.20203e-05      2.42132     -1.89339 
3.20946e-05      2.35847     -129.495 
-2.44497e-05      2.47946     -97.1823 
-3.24200e-05      2.78620      153.803 
-2.40887e-05      1.48054      51.5819 
-3.19829e-05      2.36241      46.3721 
-3.18465e-05      2.19477      162.225 
0.000103452      2.67649      155.733 
-3.19040e-05     0.851469      123.503 
2.40913e-05      2.99908      49.1915 
-5.56544e-05      2.60050      50.6176 
8.11283e-06      2.03337      21.6444 
8.09913e-06     0.391152     -4.39871 
1.59556e-05      2.55501      128.485 
-4.78543e-05      2.27379      151.068 
-9.52003e-05      3.50224      136.967 
8.08127e-06     0.836002      143.267 
1.59964e-05      2.75632      125.997 
-7.94340e-05      2.47823     -96.9530 
6.38279e-05      3.52210      43.8496 
2.40233e-05      2.24294     -171.798 
-2.40416e-05      1.97124     -177.965 
-0.000102609      3.03134      141.429 
8.02220e-06      2.02408      21.7488 
3.95122e-05      1.84196     -41.4785 
-7.88629e-05      2.79517      153.893 
-4.74079e-05      2.32545      38.8907 
-3.14968e-05      2.47073      5.34139 
-7.09226e-05      2.56164     -42.7852 
-4.74151e-05      1.28891     -99.8277 
-1.57529e-05      3.05120      40.2143 
2.35782e-05      1.77539     -14.3493 
-7.07478e-05      2.62231      140.726 
-3.14288e-05      2.61232      17.6026 
6.28633e-05      2.17368     -8.46560 
3.14787e-05      2.38805      158.377 
3.15350e-05      2.23305     -171.761 
2.35600e-05      2.01480      21.8542 
1.57359e-05      2.11367      6.51980 
3.92034e-05      3.52932      43.7372 
3.92128e-05      1.52085     -22.0113 
-3.92065e-05      1.42562     -34.1359 
-7.89967e-06      1.92271     -161.188 
3.14173e-05      2.16372      14.9996 
7.89361e-06     0.381182     -4.51399 
7.88899e-06      2.46337     -11.9486 
2.35036e-05      2.16037      1.06091 
-7.86326e-06     0.614003      120.324 
-2.34864e-05      1.98162     -177.686 
3.12975e-05      2.47316     -11.9006 
2.35165e-05      2.20193     -171.907 
2.34511e-05      3.00727      122.369 
7.84206e-06     0.844038      143.673 
7.83888e-06      3.08819      127.501 
-1.56137e-05      1.27577     -99.0193 
-7.82985e-06      1.91324     -161.092 
-1.56230e-05      2.46033     -107.993 
-1.56119e-05      2.28254      151.189 
7.81190e-06      3.01319      49.1718 
7.80102e-06      1.85828      98.0429 
1.55948e-05      2.22315     -171.724 
-7.79109e-06      1.52315     -113.199 
7.78711e-06      2.39136      109.799 
7.78851e-06      2.58211     -36.3373 
7.78435e-06      2.26108      144.904 
7.76980e-06      2.37876      158.288 
7.77639e-06      2.34446     -120.503 
