! Center RA: 16 13 41.06424,  Dec: +34 12 47.90896 (2000.0)
! Established model.
! Flux (Jy) Radius (mas)  Theta (deg)  Major (mas)  Axial ratio   Phi (deg) T \
! Freq (Hz)     SpecIndex
  0.171528    0.0200000      90.0000 
 0.0700386    0.0200000      180.000 
 0.0788217    0.0400000      180.000 
 0.0134682    0.0282843      45.0000 
 0.0123179    0.0894426      26.5651 
 0.0332652     0.101980     -168.690 
 0.0114571     0.116619      30.9637 
 0.0302914     0.134164      26.5651 
 0.0189286     0.145602     -164.055 
 0.0254578     0.152315      23.1986 
 0.0389926     0.164924     -165.964 
 0.0281260     0.178886      26.5651 
 0.0397248     0.184391     -167.471 
 0.0169732     0.196977      23.9625 
0.00583989     0.170880      20.5560 
0.00500160     0.189737      18.4349 
0.00476410     0.205913      29.0546 
0.00461792     0.120000      0.00000 
0.00453982     0.101980      78.6900 
 0.0126694     0.189737     -161.565 
 0.0315964     0.241661      24.4439 
0.00433075    0.0600000     -90.0000 
0.00828726     0.101980      101.310 
0.00407542     0.140000      0.00000 
0.00746698    0.0632456     -71.5650 
0.00731268     0.107703      111.801 
0.00368678     0.181108      173.660 
0.00353018     0.196977     -156.038 
0.00339733    0.0721111     -56.3099 
 0.0112895     0.184391      167.471 
 0.0199270     0.205913     -150.945 
0.00914482     0.116619      120.964 
0.00614541     0.141421     -8.13012 
0.00278389    0.0824621     -75.9637 
 0.0116390     0.161245     -7.12502 
0.00506545     0.128062      128.660 
 0.0202420    0.0894428     -63.4349 
 0.0116277     0.180000      0.00000 
0.00582000     0.189737      161.565 
0.00276938     0.200997      5.71060 
 0.0118753     0.223607      169.695 
0.00509579     0.220907      5.19444 
0.00239874     0.323110      21.8014 
0.00448911     0.120000      90.0000 
 0.0129099     0.341760      20.5560 
 0.0118491     0.200000      0.00000 
 0.0246747     0.141421      81.8699 
0.00698249     0.240832      175.236 
0.00736849     0.260000      180.000 
0.00977534     0.360555      19.4400 
0.00103844     0.243310      170.538 
0.00321949     0.280000      180.000 
0.000796817     0.228035      164.745 
0.00148343     0.379473      18.4349 
 0.0194137      3.93314      147.037 
0.00157096      3.76977      160.796 
0.00429507      3.75089      160.696 
 0.0128254     0.645600      163.811 
0.00786005      1.63083      146.505 
0.00557279      3.80111      161.279 
0.00127999     0.950158      149.657 
-0.00716800      4.00605      144.961 
0.00415739     0.957706      151.294 
0.00710566      3.60494      149.309 
0.00402501     0.626418      163.301 
-0.00107729      3.52596      151.545 
-0.00103245      3.51648      151.832 
0.00526762      3.41397      156.890 
0.00350956      4.16869      144.175 
-0.00667192      3.54356      151.699 
-0.00259621     0.733485      154.134 
-0.00694927      4.38488      144.280 
0.00432287      1.53388      140.290 
-0.00157298      3.94203      159.818 
0.00158372      1.64754      146.889 
-0.00156158      3.62353      154.849 
-0.000793763      3.82539      158.532 
-0.00458781      1.58240      159.274 
-0.000774260      4.06054      145.840 
0.00130429      1.14490      160.615 
-0.00276873      2.62092      154.217 
0.00272671     0.940213      150.709 
0.00825577      3.62215      149.470 
0.00618435      3.96676      147.352 
0.00282434     0.930591      151.783 
0.00801552      1.51855      139.808 
0.00206398      4.15249      144.013 
0.00935637      2.42405      146.441 
-0.00315367      4.11597      146.696 
0.000673543      3.70108      160.096 
0.00297570      3.38774      157.068 
0.00476326      1.16379      160.942 
0.00323571      3.91556      156.840 
-0.00258404     0.715542      153.435 
0.00403379      3.06757      145.896 
0.00361859      2.31664      153.877 
0.00158351      3.82005      161.375 
-0.00196515      3.63324      155.269 
-0.00157463      4.13270      146.848 
-0.000996869      3.57066      151.569 
-0.000523826      3.75105      158.085 
0.00270154      3.98362      147.507 
0.00130266     0.921303      152.879 
0.00174474     0.913017      151.189 
0.00295113      3.36933      156.935 
0.00146982      3.51369      158.986 
0.00338314      1.35070      152.676 
-0.00178605      4.14946      146.999 
-0.000885859      3.80410      143.552 
-0.00218770      1.56371      159.015 
0.000457473      4.00050      147.661 
-0.00317947      3.55308      151.415 
-0.000449728      3.63235      157.671 
0.000446469      4.13633      143.850 
-0.000439489      4.17713      146.919 
0.00128705      1.69198      147.061 
-0.00171023      3.61386      157.551 
0.000857529      3.97759      147.109 
-0.000859206      3.89667      148.431 
0.000422743      3.92617      157.223 
-0.000420332      2.35983      148.870 
0.00443389     0.987927      148.241 
0.000645741     0.912360      153.997 
0.00265136     0.921954      155.659 
0.00135331     0.970979      147.619 
0.00609347      1.21078      157.671 
0.00284271     0.903770      155.136 
0.00238001      1.44845      144.554 
0.00453366      3.88973      162.031 
0.000369082     0.954149      146.976 
0.00145779      3.30720      147.848 
-0.000724239      2.61228      154.612 
0.000605599     0.937443      146.310 
-0.00599729      3.38189      154.799 
0.000766188     0.913893      156.801 
0.00173175     0.920869      145.620 
0.000754514      3.47638      158.749 
0.000476577      3.29029      147.662 
0.00140843      3.32277      146.788 
-0.00481187      2.25291      144.758 
0.00151116     0.904434      144.904 
0.000421809      3.44651      158.199 
0.000926350      2.25788      145.465 
-0.000388499      3.50091      156.071 
0.000201208      3.16183      146.611 
0.00335008     0.895544      156.297 
0.00249435      3.86704      159.409 
0.000473212      3.45774      158.629 
0.000234161      3.36719      146.876 
0.000216423      3.35046      146.689 
0.00276882      1.57747      140.659 
0.000408222      3.42794      158.074 
0.000740502      3.70864      150.255 
0.000202225      1.43220      144.090 
0.000798664      3.33952      146.976 
-0.000940811      3.52953      156.631 
0.000820395     0.888144      144.162 
0.00106715      3.38000      157.380 
-0.000346765      3.65141      155.400 
-0.000678529      3.54790      156.759 
0.000335804      3.10077      146.310 
-0.000164055      1.66012      158.070 
0.000745892     0.877268      155.772 
0.00132601      3.36155      157.249 
0.000604934      1.36850      153.060 
0.000668445      3.69876      150.524 
0.000483116     0.872009      143.393 
-0.000661061      2.62968      153.825 
-0.00156182      3.55848      157.182 
0.000617551      3.11191      146.004 
 0.0132452      3.33257      156.666 
-0.000443813      3.72285      147.505 
-0.000148015      1.69198      151.011 
0.000146428      3.84832      159.305 
0.000146629      3.35094      156.801 
 0.0108728     0.254558      45.0000 
 0.0100811     0.477074      123.024 
0.00588410      2.40741      146.178 
-0.00660213      2.82064      141.911 
0.00318011     0.269073      41.9872 
-0.00228754      3.43628      155.225 
-0.00321740      2.08614      147.529 
-0.000659533      3.57693      157.306 
-0.00186162      3.47333      151.074 
-0.00136841      3.22769      149.462 
0.000581016      3.72091      153.848 
-0.00468438      2.33649      141.953 
-0.000812719      3.56926      157.602 
-0.00314597      3.41813      155.084 
0.00257716     0.134164      63.4349 
0.00126111     0.488262      124.992 
0.00234252      2.82963      145.074 
-0.00146188      3.19331      149.098 
-0.00174615      3.51801      151.104 
-0.000802162      2.80492      141.659 
0.00106128      3.64664      150.060 
-0.000532323      3.49085      151.232 
-0.000514734      3.17616      148.912 
0.00613052     0.300000      36.8699 
0.00645295      1.92800      143.011 
-0.00594397      2.83641      142.160 
0.00418329      2.79693      144.605 
0.00297207      3.68136      150.371 
-0.00146173      3.53553      151.260 
-0.000853778      3.14197      148.536 
0.000277646      3.34054      156.351 
0.000276064      2.07200      143.241 
-0.00608312      2.10305      147.821 
0.000949254     0.284253      39.2894 
-0.00142176      3.12493      148.344 
0.00128639     0.367696      112.380 
0.00196418      2.36305      146.041 
0.000441255     0.300000      143.130 
0.000352166      2.39082      145.911 
-0.00381068      2.85223      142.407 
-0.0150682      4.00899      155.225 
0.00316209      1.40357      139.044 
0.00513440     0.128063      51.3402 
0.00231843     0.806226      136.005 
0.00155607      3.83082      151.294 
0.00109490      2.04402      143.354 
0.00215262      3.81329      151.150 
0.000257317      3.90881      152.911 
 0.0102187     0.116619      59.0363 
0.00267055      1.40186      137.891 
0.00174263      3.89974      153.172 
0.000936583     0.863713      137.816 
-0.000680976      3.11448      148.658 
0.00172311      2.06010      143.686 
-0.00227390      3.09742      148.465 
0.00464519     0.906863      138.576 
0.000213292      3.79579      151.004 
0.00275364      2.87472      148.079 
0.00252546      2.89171      148.289 
-0.000388323      3.54316      157.778 
0.00901453     0.375766      115.201 
0.00124889      2.08806      143.569 
0.00490321      2.78065      144.367 
0.00186755     0.305287      148.392 
-0.00182150      3.08039      148.271 
-0.000847171      3.53565      158.078 
0.000183309      3.92663      153.043 
0.00279940     0.921954      139.399 
0.000176224      3.91760      153.304 
0.00369856      2.34649      145.768 
-0.000978562      2.61840      145.582 
0.00142829      3.80132      153.435 
-0.00175483      1.27562      138.814 
-0.00176034      3.06340      148.074 
0.000164088      3.94446      153.175 
0.00140174     0.322490      29.7449 
0.000510005     0.322490      150.255 
0.000517956      2.10000      143.130 
-0.000314247      3.03210      143.584 
0.000168614     0.384708      117.897 
0.000393825     0.269072      48.0128 
0.00417623      2.37428      145.641 
0.000151904      3.84838      151.437 
0.000150163      3.65409      150.489 
0.00474737     0.128063      38.6598 
0.00240885     0.256125      51.3402 
0.00567093     0.272029      143.973 
0.00665055     0.305287      31.6075 
0.00291022     0.260768      57.5288 
-0.000664232     0.234094      160.017 
-0.00425794     0.353836      42.7094 
0.00267061     0.316228      34.6951 
0.00802539     0.113137      45.0000 
0.000464678     0.100000      90.0000 
0.00156690     0.277849      120.256 
0.000114866     0.100000      53.1301 
0.00130253     0.101980      101.310 
0.000633497     0.272029      53.9726 
0.000418692     0.107703      111.801 
0.00494113     0.144222      33.6901 
0.00360984      1.63719      154.687 
0.00722547      3.09690      155.587 
0.00575337      3.80873      160.043 
0.00456737      2.90524      149.374 
0.00240316     0.763675      135.000 
0.00217407      1.85408      156.477 
-0.00135925      3.90717      158.689 
-0.000220173      1.62985      150.604 
-0.00290114      1.64730      150.945 
-0.00274108      2.14709      154.628 
-0.000184044      2.13860      155.113 
0.00125687     0.161245      29.7449 
-0.000825808      3.16632      153.759 
0.00101003      2.76442      144.125 
-0.00266584      4.01009      162.288 
0.00214150      2.91239      149.913 
-0.00153783      3.02344      147.151 
-0.000162852      3.93731      159.171 
0.000162793      3.10522      155.251 
-0.00204195      2.68477      146.547 
0.000161237      1.83576      156.228 
0.000633450      2.34342      153.654 
0.00198175      1.61914      154.385 
0.000587025      2.37065      154.516 
-0.00156421      3.95601      159.274 
0.00129854      3.88515      151.060 
-0.000300008      3.92581      158.795 
-0.00145220      3.37242      154.347 
0.000435434     0.777946      136.042 
-0.000698002      3.54683      158.499 
0.00104689      2.38872      154.722 
0.000996035      1.60112      154.075 
0.00102486     0.764199      137.121 
-0.000147418      3.97472      159.376 
0.000425829      2.91979      150.450 
-0.000411913      2.54031      152.830 
0.000408491      3.94492      152.526 
0.000136693      2.47136      156.132 
0.000669604      2.90241      150.255 
0.000207500     0.141421      45.0000 
0.000783331      2.89834      148.833 
0.000577804      2.46333      156.557 
-0.000542797      3.03434      146.834 
-0.000131600      2.26035      149.123 
-0.000128802      3.14840      153.598 
-0.000126499      2.15574      154.148 
0.00426756      3.39718      167.764 
0.00550619      2.65932      164.291 
0.00369212      3.39299      168.094 
0.00519520      3.66399      167.709 
0.00184929      3.37343      168.024 
0.000648076      2.68522      158.595 
0.00525074      2.65932      158.839 
0.000863996      2.64068      158.682 
0.00196672      3.64445      167.642 
0.000684518      3.41672      167.835 
0.000279587      2.94245      159.717 
0.00279099      2.92027      166.535 
0.00224944      2.72250      158.902 
0.000640995      2.96122      159.852 
0.00295069      2.67798      158.993 
-0.00320571      2.95053      164.268 
0.00434113      2.66481      163.877 
0.00376640      2.92500      166.154 
0.00118012      2.74117      159.053 
-0.00226413      3.28907      165.203 
-0.00215133      2.69704      156.857 
0.00197119      2.68403      163.996 
0.00222138      2.62206      158.523 
0.000177035      3.00566      159.756 
0.000446913      3.91127      167.598 
0.000563076      2.75986      159.201 
0.000290319      3.41257      168.163 
0.000542054      3.91561      167.312 
0.000299273      3.62491      167.574 
0.000151615      3.66830      167.403 
0.000150377      3.05011      159.664 
0.000392184      3.43628      167.905 
-0.000128511      3.82460      169.454 
0.000252848      2.62945      158.118 
0.000125772      3.25189      167.930 
-0.000123552      3.86761      169.271 
0.00308235      4.39604      150.869 
0.00235267      1.30920      161.288 
0.00214953      4.37858      150.742 
0.000305288      1.39140      161.565 
0.00109497      3.49857      149.036 
-0.000292466      4.13473      155.418 
-0.00927411      4.18918      147.676 
0.00178662      1.47363      161.811 
-0.00128901      4.15293      155.533 
0.00145551      4.51526      146.380 
-0.00745206      4.48116      153.778 
0.000776440      4.15018      153.682 
0.00132978      3.50890      148.756 
0.00151197      1.98736      159.376 
-0.00589963      2.28464      159.503 
0.00242907      1.49265      162.051 
0.000658765      4.16812      153.804 
-0.00129767      4.17114      155.647 
0.00372562      4.36115      150.614 
0.00372717      4.53193      146.520 
0.00192081      1.26491      161.565 
0.000684464      4.18607      153.925 
0.00153590      3.49182      148.586 
0.000373101      1.29027      161.003 
-0.00114877      4.18937      155.760 
0.00135831      4.20405      154.044 
0.00211617      1.95724      158.416 
-0.00173657      1.76918      137.291 
0.000524990      2.07480      162.613 
0.00156686      4.34373      150.484 
-0.00311721      4.20761      155.872 
-0.00277500      1.96825      152.133 
0.00551687      4.35137      150.843 
0.000998475      4.22204      154.163 
0.000740376      1.24595      161.274 
0.00170568      2.92246      149.574 
0.000770169      2.09390      162.777 
0.000816175      4.30279      154.388 
0.000170904      3.48144      148.867 
0.000888553      3.47477      148.414 
0.00332572      4.43788      154.936 
-0.00474975      3.35440      154.199 
-0.00127468      1.25936      136.931 
0.00615133      4.33391      150.714 
0.00184555      2.11301      162.937 
0.00219802      4.54863      146.659 
-0.00113077      4.38839      156.356 
-0.00161975      1.75568      137.770 
0.000764052      1.97585      158.629 
0.00144083      2.13214      163.095 
0.000273904      4.28476      154.272 
0.000258607      3.45774      148.241 
0.000851496      1.91207      142.651 
0.000237602      3.45138      147.783 
-0.000512465      2.26592      159.326 
0.000246512      4.26676      154.156 
-0.000457335      4.38041      156.595 
0.000118737      3.44076      148.065 
-0.00119126      4.34074      144.186 
0.000465227      4.44639      154.703 
0.000112102      3.43447      147.606 
0.00620681      4.29344      158.694 
0.000605279      2.99880      160.115 
0.000745802      3.27756      156.251 
0.00310744      3.80552      156.129 
0.00357455      2.98000      159.984 
0.00191608     0.184391      40.6013 
0.00122355      3.85191      160.907 
0.000876853     0.212603      48.8141 
-0.00343539      3.73202      162.536 
0.000326793      3.25122      156.431 
0.00135647     0.200000      53.1301 
0.000878734      4.28434      149.724 
0.00108294     0.216333      56.3099 
0.00172204      2.40840      155.989 
0.000505650     0.528015      127.304 
0.000323241      3.25926      156.109 
0.000268411      4.30163      149.859 
0.000285011     0.516140      125.538 
0.00113123      3.78724      156.007 
-0.000131592      1.74230      138.257 
-0.000130016      1.15412      152.103 
-0.000242596      2.24722      159.146 
0.000406834      3.85850      160.626 
0.00271656      3.23289      156.289 
0.000953683     0.556058      127.694 
0.000406648      3.42940      159.874 
0.00134356      2.92971      150.110 
0.00291052      4.30897      150.222 
-0.000634492      1.17184      152.560 
0.00114525     0.169706      45.0000 
0.000377104      1.30920      145.582 
0.00141928      1.53688      161.801 
0.000640003      3.64944      153.997 
0.000332499     0.197990      45.0000 
0.00105252      2.42668      156.181 
0.000257876      3.83964      160.527 
0.000375475     0.228035      52.1250 
0.000698221     0.891067      135.909 
0.000836008      4.69383      147.529 
0.000593801      1.32575      146.070 
0.000948499      3.37769      162.423 
-0.000118213     0.816333      120.964 
-0.000469490      1.18962      153.004 
0.000117101      1.44941      152.021 
-0.000458619      3.47264      155.501 
-0.000456100      2.24009      156.869 
0.00182580      3.21459      156.146 
0.00161006      4.30074      158.446 
0.000639973      2.93973      149.772 
0.000241412      1.46711      152.387 
0.000260227     0.278568      111.038 
0.000370148      3.40376      160.074 
-0.000237593      1.62542      145.528 
0.000574397      1.45890      151.327 
0.000153533     0.184391      49.3987 
0.000139079      4.32416      150.945 
0.000130464      3.66742      154.134 
0.000238984      3.75899      155.480 
-0.000120953      1.60897      145.125 
0.000120043      4.24005      154.281 
-0.000111609      1.20748      153.435 
-0.000112138      1.95059      151.858 
0.00122514      3.97759      166.034 
0.00282926      3.00273      166.519 
0.00158516      4.23759      158.399 
0.00298010      1.97200      143.246 
-0.00429254      4.34626      156.975 
0.000425810      3.58240      163.791 
0.00564258      2.98329      166.430 
0.000219382      3.94370      165.611 
0.00198960      3.56320      163.701 
0.00416207      1.95602      142.896 
0.00152482      2.89800      159.814 
-0.00140729      1.78941      152.003 
0.00100851      1.98404      142.784 
0.000196837      3.96308      165.683 
0.00414402      3.98246      165.754 
0.000531023      3.87660      155.947 
0.00411110      2.75572      164.854 
0.00109182     0.950158      139.268 
0.00298719      4.15235      157.635 
0.00275290      4.17085      157.739 
0.000788081      3.85834      155.826 
0.00184124     0.402492      116.565 
-0.000713840      1.85181      152.328 
0.000140383      2.84176      159.397 
0.000631526      3.80825      165.088 
0.000544360      2.96385      166.339 
0.00129891      3.54401      163.610 
0.00144177      3.84010      155.704 
0.000751662      3.96812      166.594 
-0.00115131      1.72708      151.654 
0.000561701      2.70385      158.749 
0.000394525      2.00000      143.130 
0.000276550     0.504777      123.690 
0.000137128     0.965401      140.042 
-0.000637240      3.82173      163.272 
-0.000967837      1.86955      152.613 
0.000724996      3.24549      166.820 
0.000250628     0.978366      139.145 
0.00129955      3.98743      165.476 
0.000237154     0.521536      122.471 
0.000235689      4.25620      158.499 
0.000784447      3.82188      155.581 
0.000548539     0.532541      124.287 
0.00298570      3.77576      154.928 
0.000631188      2.88804      149.172 
0.00258288     0.993579      139.899 
0.00181203      3.96807      165.403 
-0.00309923      3.80258      163.185 
-0.000682561      3.13847      149.349 
0.000939974      3.52483      163.519 
0.000226151      3.85019      156.098 
0.00265883     0.549181      123.111 
0.000135035      3.79415      164.718 
0.000813771      3.94872      165.330 
0.00130691      4.12311      157.166 
0.000799424     0.761577      150.068 
0.00193836      3.83192      155.977 
0.00180705      3.24099      167.164 
0.00143757      2.81325      144.841 
0.00167921     0.538517      121.329 
0.000211500      1.52053      153.435 
-0.000103237      4.09004      155.440 
-0.00188710      3.14871      149.036 
0.00366473      2.76101      164.454 
0.000136414     0.560357      124.824 
0.000120662      3.92938      165.256 
-0.000102394      4.07185      155.323 
0.00271248      1.50266      153.094 
0.00134828      3.50565      163.426 
0.000981288      2.07625      144.013 
-0.000181829      4.05369      155.205 
-9.67038e-05     0.926499      147.339 
-0.000445609      1.76045      158.682 
0.00138483     0.744312      149.300 
0.000930704      2.46130      155.518 
0.00183207      1.00896      140.631 
-0.00136286      4.03554      155.086 
-0.000718314     0.909725      146.659 
0.000182488      4.14155      157.274 
-9.31094e-05      1.94987      153.172 
-0.00175641      4.07804      158.720 
-0.000680993      4.01741      154.966 
0.00144418     0.737835      147.171 
0.000582483      2.91548      149.036 
-0.00160094      1.96774      153.435 
-0.000590893      2.40133      150.018 
0.000377404      2.95703      149.967 
0.000333940      2.91678      159.950 
0.00131145      2.44311      155.323 
0.000848973      2.55625      159.864 
0.000548414      2.97436      150.160 
-0.000644375     0.893085      145.954 
-0.000482947      2.04793      148.173 
0.000665142      2.93264      149.237 
0.000399254      2.81823      145.408 
0.000196448      2.63348      159.087 
0.000372299      2.01604      143.471 
0.000444725     0.727186      148.496 
0.000399276      3.84213      156.371 
-0.000397814      1.76782      158.078 
0.000656415      2.41537      154.496 
0.000445706      2.99172      150.350 
-0.000322235      3.78344      163.098 
-0.000241426      3.08551      164.973 
0.000156605     0.528394      119.476 
0.000162289      3.00912      150.539 
8.12536e-05      4.13386      157.529 
0.00170169     0.228035      37.8750 
-0.00419376      3.40852      154.638 
0.000221889      1.48661      162.784 
0.00114529      1.46751      162.553 
0.000827045     0.212603      41.1859 
0.00103930      4.32634      150.354 
0.000885140      1.44845      162.316 
0.000699339      3.38195      149.036 
-0.00191859      4.36513      152.731 
0.000394316      1.36616      162.096 
-0.000883150      3.42660      154.781 
0.000727035      2.08806      163.301 
0.000828452      1.34715      161.834 
-0.00200239     0.126491      161.565 
0.000679603      3.36482      148.861 
0.00140093     0.200000      36.8699 
0.000793789     0.216333      33.6901 
0.000883389     0.244131      34.9920 
0.000137920      1.63218      162.897 
0.000130114      1.51169      162.284 
0.000241807      1.73367      163.237 
0.00106105      1.32816      161.565 
0.000932296      1.75283      163.426 
0.000677586      3.34772      148.684 
0.000177003     0.156205      50.1944 
-0.000435480      4.01378      150.113 
0.000175667      2.10723      163.457 
0.000260272      1.77200      163.610 
0.000164240      3.63142      153.153 
-8.06516e-05      2.21721      158.295 
! Tentative model.
! Flux (Jy) Radius (mas)  Theta (deg)  Major (mas)  Axial ratio   Phi (deg) T \
! Freq (Hz)     SpecIndex
0.00275609      3.22056      178.933 
-0.00118536      3.26435      126.027 
0.00381920      1.82571     -132.780 
-0.00152866      3.27616      126.310 
0.000519061      3.28024      179.301 
0.00183349      1.67200     -143.267 
-0.00217884      3.28877      175.815 
-0.00128371      1.32966      43.7811 
-0.00207466      2.60722      119.908 
0.00112157      2.79957      116.748 
0.000259509      1.62800     -142.989 
-0.000180660      1.60200      92.8624 
0.000614266      1.88680      94.8645 
-0.00165584      2.86112     -178.398 
-0.00160391      1.60112      92.1476 
-0.000674335      1.90536     -140.964 
0.000344300      2.26106      105.388 
0.000259456      1.62641     -163.571 
-0.00186451     0.842140     -85.9144 
0.000470939      2.25584      104.899 
-0.000167217      2.02040      121.645 
-0.00191408      1.32936      45.0000 
0.00115771      1.88860      95.4691 
0.00183275      1.60723     -163.369 
-0.00213173      2.00998      121.159 
-0.000427705      3.43628     -155.225 
-0.00118215      3.56724      82.9148 
-0.00125284      3.41813     -155.084 
0.000238778      3.90328     -177.651 
-0.00203061      1.87723     -141.054 
0.000800434      3.20056      178.926 
0.000759277      1.06075      45.7639 
0.00103759      2.77272      116.565 
-0.000439298      3.80841     -162.897 
0.000381012      3.90415     -177.357 
0.00114621      1.65602     -142.853 
0.00223216      3.92413     -177.371 
0.000218915      2.86356      102.095 
-0.00256903      3.56976      82.5963 
-0.00137558      2.84113     -178.386 
-0.000271606      3.28804      126.591 
0.00401898      2.87903      101.622 
0.000142146      1.81218     -132.316 
0.000416473      1.07517      46.5074 
-0.00274356      1.89283     -141.435 
-0.000201817      1.89621     -127.716 
-0.000541953      3.93650      132.117 
0.000726391      1.89061      96.0725 
0.00100440      1.74413     -130.815 
-0.000716298      3.04217     -161.208 
0.00150367      1.06151      47.2906 
-0.00152018      3.82753     -162.985 
0.00173423      3.14102      178.541 
0.000616035      2.37065     -152.354 
-0.000985457      3.94994      132.332 
-0.00114051      3.32728      176.209 
0.000913696      1.89283      96.6745 
-0.000121126      3.30000      126.870 
-0.000973661     0.862090     -86.0091 
-0.00156183      2.93864      113.250 
-0.000953996      3.02324     -161.086 
-0.000540909      2.64008      105.826 
-0.000901889      1.31529      45.6161 
-0.00105708      4.20481      146.839 
-0.000380860      3.34527      128.446 
-0.00159194     0.152315     -156.801 
0.000755163      2.35296     -152.128 
0.000110761      2.28035      105.255 
0.000682817      1.73113     -130.314 
0.00149684      3.36506      114.585 
-0.000109917      4.49720      135.000 
0.000991736     0.617414     -155.095 
-0.000568303      1.31529      44.3839 
0.000214870      1.58808     -163.163 
-0.000261162      1.56869     -109.359 
0.00116492      2.49840     -160.840 
0.00126290      3.13739      70.6410 
-0.000154089      4.51136      135.180 
0.00149174      1.04805      48.0941 
0.00194563      1.89526      97.2750 
0.00105816      1.65239     -128.118 
0.000349076      1.50000     -143.130 
0.000499327      1.56320     -163.652 
-0.000534724      1.62111      92.1211 
-0.000862411      3.00433     -160.962 
-0.000246405      1.99970      120.669 
0.000148887      2.28569      105.739 
0.00112746      2.62374     -146.189 
-0.000101950      3.73277      128.037 
-5.01949e-05      2.53503     -170.463 
-0.000422416      3.72945      128.468 
-0.000286324      1.57544     -110.045 
-0.00104124      2.51531     -170.388 
0.000187034      1.90924     -134.576 
-9.34300e-05      3.33287      128.177 
0.000465614      2.33529     -151.899 
-0.000144287      3.90825      132.096 
-0.000555450      2.84289      135.855 
-0.00100661      2.66481      106.123 
-4.77407e-05      3.31204      127.147 
-0.000452659      2.82121      70.5374 
-0.000477675      1.36235      40.2364 
0.00113756      1.54402     -163.443 
-0.00119023      4.22156      146.988 
0.000139604     0.609262     -156.801 
-0.000869824      1.85440      73.7151 
0.000308057      3.38615      172.875 
0.000380495      1.50426     -144.197 
-4.60652e-05      3.81371      130.960 
-8.94558e-05      3.92168      132.313 
0.000173904      1.57632     -125.707 
-0.000216529      1.98957      120.174 
0.000732479      1.71825     -129.806 
0.000585473      2.65149     -146.070 
0.000213107      3.88803      126.634 
-0.000216056      3.80063      130.732 
-0.000207988      3.34724      176.231 
-8.77689e-05      1.84889      74.3100 
0.000497042     0.627694     -157.521 
-0.000490165     0.882043     -86.0995 
-0.000130006      1.58240     -110.726 
0.000129695      1.86269      86.9225 
-0.000334994      2.98543     -160.837 
0.000409703      2.31767     -151.666 
0.000522501      4.10122     -171.870 
-8.27640e-05      4.52557      135.358 
0.000119205      2.76384      116.194 
-0.000319390      2.81460      70.9213 
8.04119e-05      1.68404     -142.722 
0.000244711      1.88383      86.3478 
-8.24187e-05      1.59411     -113.671 
-4.13958e-05      3.93517      132.528 
0.000743129      1.03479      48.9182 
0.000392330      3.40359      173.251 
0.000274433      1.56474     -125.112 
0.000116988      1.89526     -134.145 
-0.000159710      2.97893     -161.200 
-0.000121323      3.78761      130.503 
-0.000428510      3.56483      83.2338 
0.000350250     0.286357      24.7751 
-0.000116660      3.96343      132.546 
-7.82809e-05      1.60225     -114.326 
-7.81398e-05      1.97960      119.673 
-0.000193662     0.646220      68.1986 
-0.000191639      3.77465      130.272 
0.000229569      1.88521      85.7412 
0.000153003      2.04480     -176.074 
3.87702e-05      3.86005      126.573 
-0.000114231      2.94659      113.607 
0.000150986      1.89789      97.8739 
-0.000151427      2.96000     -161.075 
-0.000151027      3.36476      71.9958 
3.82160e-05      2.02633     -175.471 
0.000113122      3.84817      126.334 
3.81006e-05      2.29687      106.699 
-7.55380e-05      3.84666     -163.072 
7.49708e-05      2.63492     -145.827 
0.000112392      2.30009     -151.429 
-3.77587e-05      4.53982      135.535 
-0.000112539      4.23835      147.135 
3.75065e-05     0.635610     -155.854 
3.73089e-05      2.65277     -174.375 
-3.71457e-05      3.56253      83.5532 
