! Center RA: 16 35 15.49297,  Dec: +38 08 04.50058 (2000.0)
! Established model.
! Flux (Jy) Radius (mas)  Theta (deg)  Major (mas)  Axial ratio   Phi (deg) T \
! Freq (Hz)     SpecIndex
   1.43692      0.00000      0.00000 
 0.0362935    0.0282843      135.000 
 0.0238594    0.0447214      116.565 
0.00814283    0.0200000     -90.0000 
 0.0117272    0.0400000     -90.0000 
 0.0391585    0.0600000     -90.0000 
 0.0486599    0.0632456      108.435 
  0.302755    0.0800000     -90.0000 
  0.187230    0.0824621      104.036 
  0.113133    0.0565686      45.0000 
 0.0650377     0.580000     -46.3972 
0.00543353     0.439090     -30.0686 
 0.0219699     0.466476     -30.9638 
 0.0243225     0.456508     -28.8108 
0.00254050     0.712180     -51.8428 
0.00763492     0.700000     -53.1301 
0.00964101     0.551725     -46.4688 
 0.0181808     0.688186     -54.4623 
0.00469871     0.565685     -45.0000 
0.00306523     0.537401     -45.0000 
0.00829149     0.572713     -24.7751 
0.00866036     0.416173     -54.7824 
0.000523712     0.438634     -46.8476 
0.00202575     0.424264     -45.0000 
0.00562608     0.449444     -32.2756 
 0.0112045     0.593970     -45.0000 
0.00115867     0.493964     -58.2405 
0.00272643     0.566392     -47.8624 
0.00238125     0.483735     -60.2551 
0.00463389     0.501198     -61.3895 
0.00561982     0.518845     -62.4472 
0.00791344     0.377359     -57.9946 
0.00701209     0.617738     -60.9454 
0.00284987     0.509902     -64.4400 
0.00341067     0.709366     -49.5739 
0.00196583     0.453431     -41.4237 
0.00107118     0.622254     -45.0000 
0.00163616     0.468615     -39.8056 
0.000660891     0.483322     -65.5560 
0.00155401     0.360555     -56.3099 
 0.0229650     0.621289     -86.3086 
 0.0123151     0.600000     -90.0000 
0.00281725     0.742159     -75.9638 
0.00937980     0.766551     -74.8760 
0.00690579     0.581378     -93.9452 
 0.0168593     0.865563     -49.6859 
0.00837699     0.852760     -50.7106 
0.00238759     0.837377     -49.8440 
0.00113502     0.860233     -54.4623 
 0.0168066     0.751532     -25.2011 
0.00899705     0.706824     -25.1148 
0.00286792     0.970979     -32.3807 
0.00883500     0.858836     -62.2415 
0.00591042     0.822922     -64.0577 
0.00678076     0.905539     -59.4703 
0.000768508     0.814371     -65.3231 
0.00564715     0.791202     -69.2744 
0.000281892     0.796492     -61.5044 
0.000110713     0.806226     -60.2551 
 0.0191978     0.305941     -78.6901 
0.00105853     0.335261     -72.6460 
0.000311963     0.240832     -94.7636 
0.00448762     0.228035     -105.255 
0.00660209     0.215407     -111.801 
0.000559509     0.341760     -69.4440 
0.00209364     0.367695     -67.6199 
0.00326207     0.375766     -64.7989 
0.000219862     0.388330     -55.4915 
0.00132736     0.400000     -53.1301 
0.000515939     0.393954     -66.0375 
0.000132501     0.320000     -90.0000 
0.000853461     0.205913     -119.055 
0.000601508     0.320624     -93.5763 
5.66480e-05     0.412310     -67.1663 
0.00197145     0.329848     -75.9638 
 0.0149487     0.688767     -64.1790 
0.00807359     0.302655     -82.4054 
3.05371e-05     0.349285     -66.3706 
0.000483375     0.357771     -63.4349 
0.00120113     0.349857     -59.0362 
0.00169856     0.325576     -79.3803 
0.00274045     0.300666     -86.1859 
0.00166073     0.322490     -82.8750 
0.000185274     0.320624     -86.4237 
0.00912618     0.814125     -62.1759 
0.00752256     0.189737     -18.4349 
0.00508115     0.843801     -31.4296 
0.00508771     0.200000     -126.870 
0.00661894     0.234094     -19.9831 
0.00206301     0.816333     -30.9638 
0.00146193     0.212603     -131.186 
0.000659936     0.833547     -30.2564 
 0.0229797     0.196977      66.0375 
0.00846426     0.208806      73.3008 
0.000155659     0.205913      60.9454 
0.00412660     0.208806     -16.6992 
0.00433410     0.164924     -14.0362 
 0.0395845     0.145602     -15.9454 
0.00785473     0.909725     -33.3407 
0.00170813     0.926499     -32.6609 
0.00710974     0.898888     -32.2756 
 0.0327110     0.101980     -11.3099 
0.00323235     0.328024     -52.4314 
0.00746845     0.340588     -93.3665 
0.00572531     0.344093     -54.4623 
 0.0110301      1.76511     -70.1278 
0.00641860      1.77200     -69.5196 
0.00319065      1.74631     -69.9048 
0.000961849      1.79075     -69.7435 
0.000725446      1.87275     -70.0169 
0.00325717      1.86601     -70.5940 
 0.0165820      2.15081     -59.8586 
0.00749974      2.27754     -59.3814 
0.000965750      2.12349     -60.0543 
0.00176426      2.11358     -60.5241 
0.00290482      2.08634     -60.7320 
0.00165913      2.05913     -60.9454 
 0.0189324      2.90000     -83.2671 
0.00103948      2.89772     -83.6598 
 0.0109642      3.44836     -86.0091 
0.00359699      3.46976     -85.7026 
0.00802021      3.53010     -82.5126 
0.00679924      3.44703     -86.3407 
0.00603012      3.24395     -92.8271 
0.00436380      3.22397     -92.8447 
0.000957979      3.20506     -93.2195 
0.000402518      3.28299     -92.4441 
0.00202000      3.18509     -93.2397 
0.00630039      3.32217     -92.0700 
0.00278391      3.16512     -93.2602 
0.00153031      3.14516     -93.2809 
0.00947553      3.95434     -97.5563 
 0.0100897      3.20225     -87.8524 
0.00719567      3.83338     -94.7885 
0.00546675      1.90379     -70.9940 
0.00559565      3.68402     -96.5463 
0.00681851      3.95176     -97.2689 
0.00314450     0.599333     -64.2900 
0.00541419     0.572713     -65.2249 
 0.0103699      1.88489     -70.7960 
0.00448628      3.85331     -94.7636 
0.00269983      3.98848     -93.7376 
0.000345002     0.742428     -62.7447 
0.00212956     0.769415     -62.1027 
0.00121121     0.240000      90.0000 
0.00810827     0.220907      84.8056 
0.000561647     0.240832      94.7636 
0.00224402     0.263059      98.7462 
0.00184698     0.286356      102.095 
0.00169443     0.203961      78.6901 
0.000971052    0.0600000      0.00000 
 0.0172985      1.53075     -118.909 
0.00392567      1.56525     -116.565 
 0.0128665      1.64754     -100.491 
0.00228992      1.65130     -101.174 
0.00255339      1.68024     -98.9017 
0.000395235      1.63169     -101.310 
0.00173772      1.63573     -101.997 
0.00938632      2.48338     -97.8691 
0.00242570      2.48073     -97.4115 
0.00507519      2.47935     -100.222 
0.000543819      2.47823     -96.9530 
0.00330089      2.47588     -96.4935 
0.00550015     0.876584     -34.7778 
0.000648653     0.648999     -33.6901 
0.00341407     0.621289     -33.1785 
0.00209484     0.904434     -35.0958 
0.00337423     0.724707     -62.0205 
9.22915e-05     0.734302     -60.6422 
0.00430589     0.297321      19.6538 
0.00586333     0.417612     -16.6992 
0.00532833      2.95256     -68.1265 
0.00496703      2.28140     -87.9904 
0.00758397      2.96007     -67.7673 
0.00747047      2.52032     -90.9094 
0.00716795      1.31027     -58.7363 
0.00208653      1.30000     -59.4898 
0.00717054      2.30139     -88.0079 
0.00188139      3.07883     -68.2677 
0.00370924      3.07148     -68.6143 
0.00103364      2.94156     -67.6199 
0.000798305      1.32740     -59.1843 
0.000500691      2.58380     -86.8940 
0.000210394      2.96769     -67.4098 
2.80194e-05      2.32138     -88.0251 
0.00136220     0.882950     -76.9081 
0.000914169     0.907083     -75.9638 
0.00111430     0.878635     -78.1785 
0.000972257     0.936803     -73.8866 
0.00266474     0.851587     -80.5377 
0.000427835     0.967678     -71.9395 
0.00482752     0.992975     -71.2001 
0.00279797     0.826075     -83.0470 
7.57483e-05     0.999600     -70.1148 
-0.0126367     0.100000     -90.0000 
 0.0280964    0.0400000      0.00000 
-0.000295700     0.107703      68.1986 
-0.00111892     0.101980      78.6901 
 0.0143081     0.121655      170.538 
-0.00103025     0.100000      90.0000 
-0.00185191     0.101980      101.310 
-0.0155543    0.0824621     -104.036 
-0.00217927     0.107703      111.801 
-0.00428781     0.134164      26.5651 
-0.00139752     0.145602      15.9454 
-0.00631620     0.116619      120.964 
-0.00359970     0.180000      0.00000 
-0.00593292     0.128063      128.660 
-0.00604952    0.0632456     -108.435 
 0.0104815     0.128062     -141.340 
-0.00151162     0.181108     -6.34017 
-0.00166609     0.205913     -29.0546 
-0.0127673    0.0721110     -123.690 
-0.00188398     0.160000      0.00000 
-0.00118648     0.196977     -23.9625 
0.00724952    0.0200000      0.00000 
0.00235742     0.128062     -51.3402 
0.000237729     0.152315      23.1986 
-0.000248960     0.140000      0.00000 
-0.00807112     0.101980     -101.310 
0.00272668     0.512640     -69.4440 
-0.00105206     0.178885      116.565 
-0.00213831     0.652993     -49.9697 
0.00376819     0.493964     -68.6294 
-0.00257602     0.152316      113.199 
0.00113639     0.520000     -67.3801 
-0.00862141     0.394462     -30.4655 
0.00249916     0.872009     -36.6071 
0.000938142     0.412311     -14.0362 
0.000865842     0.107703      158.199 
0.000219952     0.278568      21.0375 
-0.00366107     0.948262     -27.6460 
0.00136290     0.288444     -56.3099 
0.00304134     0.250599      28.6105 
-0.000308047     0.624820     -50.1944 
 0.0124489     0.101980      168.690 
-0.00307742     0.161245      119.745 
-0.000341547     0.596657     -50.4403 
0.00339543     0.300000     -53.1301 
-0.000902481     0.568507     -50.7106 
0.000433131     0.436807     -15.9454 
-0.00172724     0.957706     -28.7060 
0.00441569     0.260768     -57.5288 
-0.00123252     0.528015     -52.6961 
0.000529430     0.844038     -36.3268 
0.000726794     0.697710     -62.7004 
-0.00182609     0.500000     -53.1301 
0.00187557     0.272029     -53.9726 
0.00148067     0.860232     -35.5377 
0.000848129     0.461736     -72.3499 
-0.000843326     0.134164      116.565 
0.00146644     0.743236     -23.8059 
0.00243202     0.468188     -70.0169 
0.00254454     0.212603      41.1859 
-0.00491655     0.144222      123.690 
-0.00496024     0.460435     -55.6197 
0.000450822     0.278568      111.038 
0.000115953     0.247386      104.036 
-0.00951341    0.0799999     -90.0000 
0.00314115     0.152315     -113.199 
0.00161034     0.373631     -15.5241 
0.00270826     0.252982      108.435 
-0.00303700     0.280713      85.9144 
0.00102086     0.312410     -50.1944 
0.000412339     0.223607      100.305 
0.000328518     0.715542     -63.4349 
0.00168060     0.200000      53.1301 
0.00159934     0.354401     -16.3895 
0.000796514     0.442719     -71.5651 
-0.00117098     0.164924      14.0363 
-0.000513041     0.101980     -78.6901 
7.78066e-05     0.438634     -43.1524 
-0.000319262     0.828010     -52.8533 
3.63523e-05     0.260000      112.620 
0.00600875      2.27772     -106.844 
0.00529548      2.25858     -106.991 
0.000157416      2.29120     -106.220 
0.00236202      2.31041     -106.082 
0.000278298      2.23946     -107.140 
0.000660234      2.22639     -107.784 
-0.00850848      4.14343     -59.2260 
0.00146123      2.10950     -31.4296 
-0.00184814      5.60742     -104.036 
0.00255731      4.38730      164.126 
0.00143660      4.34336      164.236 
0.00220702      2.12659     -31.1486 
-0.000374279      4.60721      173.770 
-0.00254693      4.62709      173.797 
-0.00411749      4.27612     -143.559 
0.00319166      5.86491     -87.6547 
-0.00290141      2.94054      147.499 
0.00174056      1.59700     -157.932 
0.000709793     0.873613      74.0546 
-0.00428095      3.76133     -1.52346 
-0.00122110      4.02139     -79.9755 
-0.000967075      3.54006     -22.9436 
-0.00103794      5.59142     -146.083 
0.00144972      1.57848     -157.659 
0.00217752      3.95140      140.751 
-0.000419528      2.28674      50.3227 
-0.00309782      4.70017     -90.4876 
-0.000418824      3.08992      103.856 
-0.00659159      5.60261     -103.838 
0.00205582      2.76029      89.1697 
-0.00483628      7.27720     -54.1694 
-0.00530818      6.02332     -114.523 
0.00137697      4.12146      56.0786 
-0.00302010      3.06575      103.583 
-0.00144496      2.27403      50.7106 
0.00196236      3.76643     -56.4787 
0.00178078     0.887694      75.6507 
0.00292097      3.19230     -36.0802 
-0.000265382      4.63871     -44.6506 
0.00237569      4.90750      45.4953 
-0.00268973      6.63340     -44.1449 
-0.00312751      3.54790     -23.2410 
-0.00110547      4.62450     -44.8248 
0.00276805      6.59312     -84.2548 
0.00209824      4.53982     -135.535 
0.00289847      4.22909     -35.5692 
0.000840527      3.06757     -124.104 
0.00386319      2.08096      76.0973 
0.00144825      4.44855      28.7544 
0.00225419      3.10413      92.9546 
-0.00120665      4.21900     -148.570 
-0.00191780      3.90692      47.4896 
-0.000927372      4.02492     -79.6952 
-0.00545390      2.03666     -125.407 
0.00165574      4.76038      174.697 
-0.00480650      6.87727     -125.770 
-0.00433810      3.24228     -137.750 
0.00280742      4.76092      149.449 
-0.000556587      5.10004     -167.544 
-0.000578983      4.87943     -168.414 
-0.00345456      6.54877     -64.6871 
-0.000231395      5.90268      32.8285 
0.00149951      1.81373      41.4237 
-0.00290992      1.97717      172.444 
0.00124285      5.45575     -158.043 
-0.00111880      5.19065      14.7323 
-0.00379610      6.13984     -58.5881 
0.00105811      3.44401      104.117 
0.00136132      4.91907     -98.8879 
-0.00114284      3.00466      59.1671 
-0.00184696      5.40496     -20.5809 
0.000540066      2.07171     -167.171 
-0.00192309      1.54635     -95.1944 
-0.00371771      4.86391     -168.136 
-0.00146056      4.59622     -44.8237 
-0.000509789      4.48004     0.255783 
-0.000916415      2.91294      147.619 
0.00169501      3.81293     -125.608 
0.000212056      1.58959     -158.600 
0.00126012      4.40654      164.197 
0.00188273      3.63736      98.2192 
0.00309506      3.73872      153.298 
0.00109121      4.12698      56.4640 
-0.000907352      5.01199      24.5196 
-0.000206646      5.90871      32.5604 
0.00194188      4.06546      166.921 
-0.00266274      3.00832      127.708 
0.000204352      3.78550      114.669 
0.00200871      5.10286     -172.569 
0.000608141      2.78690     -136.454 
0.00115436      2.70414     -53.7234 
0.00205569      5.43323     -149.470 
-0.00280965      3.61796     -174.289 
-0.00319708      2.14849      151.049 
-0.00104650      4.70038     -90.7314 
0.00138222      4.47182     -162.294 
-0.00310025      4.42217      160.172 
-0.00141886      5.54707     -27.9510 
-0.000674068      2.41495      153.435 
0.000739938      5.71318     -60.6532 
0.000102493      3.75899      114.520 
-0.00294266      2.60000      36.8699 
0.000657187      3.92326      140.793 
0.00124239      3.20581     -99.6974 
0.000101265     0.882950      76.9081 
0.000295727      2.08691     -167.829 
0.00464650      4.92179      45.6585 
0.00177275     0.874757      100.539 
0.000199292      2.77316     -136.753 
0.000458176      3.05103     -124.315 
-0.00477406      5.58469     -155.454 
0.000986242     0.898221      78.4399 
0.000918784      6.68757     -106.863 
-0.00136746      3.39411      171.870 
0.00284477      4.45048      164.090 
-0.00120488      3.92046      47.2741 
-0.00132417      3.54141      81.2292 
-0.000658211      4.02204      147.179 
0.00138407      5.42859     -110.037 
0.00146419      2.76210     -138.229 
0.000283784      5.27795      40.3894 
0.00107266      7.96196     -50.9131 
0.000378453      5.40270     -25.9011 
-0.00445166      1.81516      161.365 
0.00333969      6.81155     -108.488 
0.000967816      4.24500      141.888 
9.62063e-05      2.44965     -103.696 
-0.000714445      5.27219      28.8013 
0.00330955      5.78564     -106.054 
0.00167530      5.68795      147.931 
0.000879191      3.09438      8.54908 
0.000444306      3.08318      92.6026 
-0.000185961      3.99344     -20.5225 
0.000278005      2.46909     -103.586 
-0.00416472      2.37192      24.4040 
0.00328740      4.38634     -43.1524 
9.39101e-05      3.27200      94.9091 
0.000858091      3.01569     -111.801 
-0.000526617      3.20156      104.470 
-0.000613412      3.39600      164.982 
-9.32135e-05      3.99440      147.265 
-0.000415783      2.94109     -70.9490 
0.00203368      2.13860      24.8874 
-0.000816169      5.98191     -120.767 
0.000783394      4.73320      20.2727 
-0.000183777     0.470744      102.265 
-0.000447573      5.00216      24.8231 
-0.00219194      2.76586     -49.3987 
-0.000701710      4.72208     -91.6990 
0.000440197      2.98804     -13.9432 
-0.00137397      2.44180      153.225 
-0.00127490      6.61906     -44.2655 
9.10519e-05      4.90245     -99.1549 
-0.000177583      6.14557     -84.7718 
0.00332358      5.38472     -25.9940 
0.00307223      5.96312      146.630 
0.000344114      5.59089     -115.648 
-0.00126625      4.89326      32.6508 
-0.00298094      4.28042     -143.933 
-0.000986314     0.475395      104.621 
0.000668867      1.89029     -60.1799 
0.000898949      3.07766      8.97263 
-0.00121842      4.46004     0.256930 
0.000515262      1.84629     -50.2739 
0.000847690      2.45447     -104.149 
0.000549929      5.50930     -109.290 
0.00205203      2.90331      131.929 
0.00158223     0.593970     -135.000 
-0.00144215      4.93660     -83.0189 
0.000392809      2.76065      88.7546 
0.000662282      5.47430     -158.121 
-0.000346530      3.97759      147.109 
-0.00148232      6.94971     -63.5087 
0.00801739      3.63456      97.9072 
-0.000491568      3.60943     -82.6781 
-0.000169277      4.01920     -20.6895 
0.00170029      3.96590     -17.6126 
0.00159174      2.73211     -53.6334 
-0.00383125      6.03165     -114.696 
0.00146410      7.15592     -135.000 
0.000702496      5.28030      40.0834 
0.00103409      1.82702      41.8940 
0.000169437      3.98502     -111.801 
0.000707940      2.78632     -135.872 
-0.00181506      4.98401      24.9197 
8.50095e-05      3.97397     -112.176 
0.00418219      6.67428     -107.077 
-0.000930327      4.72153     -91.4564 
-0.000911326      2.89607      147.407 
0.000161717      2.16157      22.2936 
-0.00171816      2.48395      93.2310 
-0.000241526      2.32112     -18.5911 
0.000633283      2.74882     -138.540 
0.000240273      3.39506     -124.439 
-0.00133883      4.00525      147.024 
0.000540596      3.03980     -124.004 
-8.29275e-05      5.17131      14.7887 
0.000933485      3.99249     -112.068 
0.00795961      4.92154      45.3293 
-0.00195745      5.67641      142.444 
0.00115875      5.45938      145.146 
-0.000769832      4.81232     -117.204 
-0.000393873      1.20416     -175.236 
0.000985984      3.00746     -13.8514 
-8.20344e-05      5.58358     -92.0527 
0.000234529      3.89513      140.835 
-0.00183033      4.58205     -45.0000 
0.000536221      7.37805     -58.6367 
-0.00266285      4.72038     -90.7283 
0.000596155      5.08476     -177.520 
-0.000924848      3.22093      104.381 
-0.00198486      6.40013     -90.3581 
-0.00153647      7.30512     -54.1341 
0.000956751      1.81813     -50.3558 
-0.000156215      3.65141     -24.5998 
-0.000614196      5.48831     -136.181 
0.00167297      4.17469     -160.697 
0.00168205      2.34401     -53.3256 
-0.000646603      5.18560      14.5186 
-8.02814e-05      3.41532      165.069 
0.00165838      4.70064      132.241 
-0.00248611      2.34649      108.898 
0.000910392      3.68456     -147.863 
0.000235494      7.93383     -50.9342 
-0.000435097      3.52953     -23.3691 
-0.00234496      6.51365     -64.9300 
-0.00336460      3.42707      151.790 
0.000152703      6.36798     -60.4560 
0.00114597      4.22928      141.721 
0.000357008      5.44165     -146.544 
-0.00134352      5.28015      28.5065 
0.00166716      2.60599     -109.269 
-0.00147089      6.92289     -63.5830 
0.00377571      5.79938     -105.810 
-0.00172881      3.43983      164.833 
0.00114949      1.65855     -146.310 
-0.00207901      5.38917     -95.9645 
0.00184228      7.94936     -51.0250 
-0.000363637      1.61320     -42.9904 
-0.00333749      2.99613      127.405 
-0.00221904      4.45426     -123.833 
0.000819150      5.68595     -60.7301 
0.00131526      5.41601     -149.363 
0.000137781      5.60032     -115.375 
0.000276725      4.55412     -135.712 
0.00125182     0.894427      79.6952 
-0.00109965      4.57620     -129.325 
0.000219936      1.83848     -59.2500 
-0.000477747      4.82149     -117.415 
0.00181374      4.58188      146.032 
-0.000344025      6.22896     -95.5275 
0.00146326      4.00360     -111.695 
-0.000637665      1.18423     -175.156 
-0.000693417      5.14296     -153.435 
0.000583306      4.49088     -162.372 
0.00142940      4.18574     -111.293 
-0.000356904      4.32171     -138.565 
0.000260969      2.29652     -33.2749 
-0.00175258      3.54051    -0.971022 
-0.000428886      6.54024     -64.8455 
0.00152416      4.56530      145.892 
0.000283433      1.82571      42.7803 
-0.000350136      6.98713     -117.812 
0.000396680      2.74722     -137.951 
7.17385e-05      3.91065      141.020 
0.000281602      4.46426      53.7462 
0.000670196      4.80554      149.486 
-0.000207849      4.16062     -59.3669 
-0.00136774      5.99216     -120.931 
-0.00482036      3.83885      39.0794 
-0.00219196      3.43890     -132.879 
0.00104218      1.81108     -59.4703 
-0.000890159      4.93907     -82.7887 
-0.00192775      4.96427      26.0489 
0.00154144      5.48722      145.094 
0.000353495      3.66764     -147.697 
0.000580214      1.93794      136.254 
0.000799290      3.02866     -123.690 
7.05304e-05      2.78604     -135.291 
-0.000332470      3.70135      165.288 
7.03878e-05      3.55128     -103.019 
0.000740477      4.68367     -102.078 
-0.000816446      3.40852     -11.5077 
0.00318553      5.67101      147.823 
0.00514593      5.07878      165.635 
-0.00663044      1.80510      80.4333 
0.00203770      7.36766     -58.7695 
0.00259650      5.79120     -106.244 
0.00109608      3.18226     -44.2361 
0.000714623      2.77186     -135.000 
-0.000335319      3.36155     -59.6209 
-0.000924318      6.89609     -63.6579 
-0.000653071      4.30674     -138.389 
0.000958684      1.83935      43.2376 
0.000452881      1.52486      106.771 
0.000261096      5.08567     -172.316 
-6.84353e-05      3.60672     -24.5754 
0.00160870      4.47611      53.5397 
-0.000902884      3.55820      81.5966 
0.000434201      4.46609      28.6309 
-0.000260169      3.48052      35.8821 
0.000605037      3.53638     -103.408 
0.000423250      3.88253      141.064 
-0.000258794      3.99164     -170.774 
0.00190220      2.88998      131.634 
0.00111947      3.99104     -17.7994 
0.000254554      6.35814     -60.6128 
-0.000383069      3.61204     -82.3634 
0.00231171      3.06105      1.49759 
-0.00260119      6.99554     -117.591 
-0.00241854      4.40336      160.084 
-0.00240976      6.05657     -62.2503 
-0.000326506      7.24003     -52.9718 
-0.00347438      7.31095     -56.2665 
-0.000195496      4.90408      32.8475 
0.000380520      4.49444      163.985 
0.000249130      2.05066     -135.395 
-0.000561366      6.86560     -125.635 
0.000130686      3.95237     -112.932 
0.000522937      5.08394     -177.745 
6.53407e-05      5.41671     -110.308 
0.00115620      1.56000     -157.380 
-0.00464161      2.42396      153.012 
0.000530711      1.83096     -49.8739 
0.00187540      2.12047      25.1148 
-0.000716048      1.38852     -41.4965 
-0.000812100      3.42794     -24.4716 
6.44253e-05      2.78884      98.2463 
0.000657249      2.84717     -31.7921 
0.00171484      4.85077     -151.427 
-0.000486380      2.27139      50.0006 
-0.00153877      3.42812     -11.4410 
6.40977e-05      5.52818     -109.222 
-0.000244936      5.50218     -97.0992 
-0.000645430      6.06399     -92.0791 
-0.000724942      4.72017     -90.4855 
0.000624563      2.80863      98.1878 
-0.000474091      5.16624      14.5742 
-0.000575419      3.91944      46.8609 
0.00331716      4.66836     -102.369 
0.00111663      3.76431     -53.8607 
-0.00146205      4.43247     -8.82478 
-0.000831639      5.98565     -55.6197 
0.000125522      4.60109     -38.1153 
-0.00156560      6.90498     -63.5092 
0.00307262      6.25757     -124.452 
0.000990537      1.96815      142.431 
-0.000364654      3.29685     -60.1689 
-0.000822338      4.15394     -94.6949 
-0.000123956      4.43847     -141.219 
-0.00101473      6.64735     -44.2686 
-0.000298315      6.11235     -58.6504 
0.00114449      3.76558      153.163 
-0.00268939      7.25600     -53.0669 
0.00145760      4.43626     -37.4898 
-6.19363e-05      5.59156     -120.050 
-0.000722645      3.96081      146.952 
-0.000405807      4.56355     -129.130 
-0.000403392      3.48511      35.4230 
-0.000817107      3.45306      117.604 
0.00186138      5.00436      149.233 
-0.000231827      2.93462     -71.3181 
-0.000679349      2.68701      135.000 
-0.000120488      4.92089      32.7212 
-0.000292261      4.03391      116.819 
0.00129619      5.80486     -106.000 
0.000219336      4.85015      149.522 
-0.000232809      5.58158     -119.872 
0.00132796      4.07946     -71.1209 
-0.00116223      4.30516     -138.013 
0.000119378      2.76007     -53.5453 
0.00146706      4.86835     -151.540 
6.04931e-05      4.48152     -80.4956 
-0.000226125      4.23717     -97.5946 
-0.000282242      3.68201      165.209 
-0.00241229      5.42369     -20.5066 
6.01011e-05      4.61684     -37.9621 
-0.000406835      6.02847     -50.9246 
0.000117950      4.05744     -23.5323 
0.000764710      4.90689     -93.0373 
0.000177931      5.05446      137.726 
-0.000867214      4.44162     -141.582 
0.00207259      3.42812     -55.9391 
0.000116928      7.39605     -48.5080 
-0.000218198      5.67101     -44.8571 
0.000334306      3.94183     -113.313 
0.00215559      3.16796     -44.4884 
0.00120678      7.76041     -52.5394 
0.000566194      4.32042      52.3344 
0.000570794      4.02219     -111.590 
-0.00928066      8.20244     -128.267 
-5.89702e-05      2.77892     -49.0856 
0.00264055      1.82132     -58.9283 
-0.00164405      6.04003     -114.868 
0.00138698      1.83870      44.1186 
-0.00152849      3.38325     -24.4440 
0.000888685     0.588218      54.6888 
-0.000527586      2.04157     -124.624 
0.000882330      5.08272      137.711 
-0.000333584      5.05446     -132.274 
0.000218264      6.38539     -60.5445 
0.00493876      2.60929      4.83658 
0.000546212      1.54402      106.557 
0.00204244      5.39881     -149.255 
0.00171288      2.26883     -33.1297 
-5.80186e-05      3.63456     -82.0928 
-0.000802448      1.98595      161.200 
-0.000216687      4.78803      143.322 
0.000438076      4.19357     -160.787 
-0.000387542      4.97562      24.7108 
-0.000330459      5.51960     -96.8675 
0.00299701      7.92124     -51.0465 
-0.000429775      6.49215     -53.5184 
-0.000309164      5.50276     -136.325 
0.000164355      1.64195     -145.923 
-0.000576608      2.10723     -45.3845 
-0.00172560      3.41696     -84.2894 
-0.00142042      4.96588      25.0169 
-0.000583986      2.05602      127.093 
-0.00124089      7.10211     -46.5975 
0.00427484      6.83137     -45.8303 
0.000221360      4.08377     -23.6776 
-0.00111033      3.63736     -81.7808 
0.000511194      3.02688     -13.7608 
0.000573993      1.90966      136.273 
-0.000158744      4.95459      32.4712 
-0.00143724      2.50392      93.2052 
-0.000993549      6.87817     -63.5840 
0.00220192      2.81965     -31.6608 
0.000257505      2.74824     -53.8807 
-0.00134258      4.38488      46.1088 
5.59808e-05      4.01009     -17.7120 
0.000526380      5.60143     -24.9180 
0.000963796      4.17445     -111.648 
-0.00175709      6.04109     -50.7773 
-0.00109632      5.40300     -29.9816 
-0.000416519      4.94162     -82.5586 
-0.000312159      3.25969     -60.6039 
0.000525067      4.03524     -17.8961 
0.00213243      4.04851     -37.7757 
0.000163069      5.20408     -53.4384 
0.000663408      3.75255      121.487 
0.00305868      5.43625     -81.7507 
-0.000419512      1.40357     -40.9555 
0.000107937      4.20119     -51.7662 
0.000970096      4.03351     -111.221 
-0.000161905      7.24707     -64.8494 
-0.000158982      2.67380      43.4846 
-0.00115953      2.67081     -174.844 
-0.000107271      5.23927      140.110 
0.000832558      4.18077     -88.9036 
0.000555620      3.52165     -103.799 
-0.000550598      4.15562     -94.9697 
-0.000615647      5.92439      143.788 
-0.000262709      1.21491      122.905 
0.00286952      5.21601     -53.2619 
0.00480639      5.03968      137.573 
0.00100727      4.30822      52.5449 
-0.000304698      3.48993      34.9651 
-0.00357714      6.96620     -132.207 
-0.000847447      7.22047     -64.9256 
-0.00129091      3.22751     -137.511 
-0.00169407      5.57641     -155.641 
-0.00299062      5.22394      139.970 
0.00230232      4.51615      21.5658 
-0.000605404      5.71552      150.205 
0.000820610      4.17310     -51.8119 
0.000985372      4.72889      132.257 
-0.000373471      4.95903     -77.4211 
0.00245294      1.98040      141.973 
0.000202109      4.48366      28.5085 
-5.21727e-05      3.57514      81.9606 
-0.000300156      5.52203     -97.0735 
-0.00123117      6.40028     -90.5371 
-0.000969157      4.29660     -144.090 
0.000190897      3.69096     -148.291 
0.00246357      1.62936     -138.483 
0.000672592      3.50326      66.8014 
0.000725019      4.43878      170.665 
-0.000293180      5.15197      14.8455 
-0.000975934      6.63035     -131.576 
-0.000913463      3.57799      81.6434 
-0.00125274      1.18727      122.619 
0.000101901      3.81764     -125.189 
-0.000751462      4.44315     -123.619 
-0.000406191      4.56075     -129.484 
-5.07793e-05      2.68760      43.7939 
-0.000474319      4.84850     -167.856 
9.99986e-05      6.06541     -71.1468 
-0.00134983      2.71765      47.3859 
-0.000195719      3.90579      47.0750 
0.000636650      7.37035     -133.571 
-0.000147575      5.71349     -44.7164 
0.00191345      2.80863     -117.112 
-0.000403169      3.21602      104.036 
0.000382757      4.89477      149.558 
0.00151891      4.17421     -18.4349 
0.000473564      3.82920     -125.433 
0.000766805      3.40658     -74.3318 
-0.00151809      4.94631      26.1506 
0.00132022      4.45215     -37.3332 
-0.000435257      6.29327     -45.1288 
-0.000193993      2.92500     -103.846 
-0.00156931      6.97653     -63.4349 
-0.000582270      6.55515     -111.477 
0.000433184      2.41479      58.5479 
-0.000414218      2.67918     -167.935 
-0.000489651      4.72068     -90.9710 
0.00240064     0.962081     -69.3045 
-0.00180591      6.86929     -63.7334 
0.000272944      3.35172     -45.2418 
-0.000416178      2.00489      161.384 
-0.000427042      5.90827      143.673 
-9.71791e-05      1.39054     -40.3331 
0.000631703      2.75862     -133.531 
-0.000959508      4.85671      171.236 
0.00127391      5.60988     -25.1033 
-0.000170724      5.68862      142.284 
0.000612820      6.05898     -71.3258 
-0.00369923      5.42693     -84.2894 
-9.51512e-05      5.97438     -55.7780 
0.00106610      6.68018     -107.241 
0.00123718      3.74775      153.025 
0.00103539      1.85311      43.6881 
-0.000227655      5.95785     -55.6698 
0.000141241      2.80007     -117.663 
0.00106816      5.47083     -22.3460 
-9.36120e-05      1.97464      173.019 
0.000927343      4.05216     -111.119 
-0.000459854      3.14865      164.904 
-0.000133702      2.07200      126.759 
-9.26325e-05      6.46418     -53.5556 
-4.74914e-05      1.52643     -95.2624 
-0.000840155      6.20029     -113.174 
-0.000314467      4.22005     -97.8997 
0.000719081      6.69340     -107.027 
-4.73351e-05      6.00247     -121.095 
-0.000311303      3.88870      56.9638 
-0.000394241      2.37192      109.199 
-0.00158636      4.39841      45.5527 
-0.000135639      3.23246     -60.7388 
0.000139225      3.79226     -53.7949 
-0.000779753      4.72106     -91.2137 
-0.00128046      2.92027     -103.465 
0.000132198      1.61307      107.312 
0.000184433      3.50708     -104.195 
0.00271553      5.63560      25.6557 
0.000842046      7.23439     -129.278 
-0.00406816      5.29774      28.4033 
-0.000568547      6.26498     -45.1293 
0.00257804      2.40441      58.9545 
-0.00176926      2.68901     -175.307 
-0.000888545      5.99573     -121.357 
0.00149691      6.58027     -69.9127 
0.000226266      5.18536      168.430 
4.61135e-05      4.68722      132.060 
-0.000271041      7.23859     -64.9927 
-0.000224922      5.16736     -29.4423 
-0.00101843      6.27911     -45.0000 
0.00127086      4.71546      132.078 
0.000169963      4.25737      141.676 
-0.000421309      5.51725     -136.469 
-0.000390834      2.81716     -47.5895 
-0.000340689      3.49497      34.5085 
-0.000437509      4.55588     -147.915 
0.000644230      3.15785      141.170 
-0.00120570      4.52747      158.763 
-0.000265111      6.55454     -137.597 
-9.00258e-05      1.40584     -39.8056 
-0.000743236      5.58802     -104.086 
-0.000809844      3.44006     -132.408 
4.53783e-05      2.96769     -55.9887 
0.000299888      5.51507      145.042 
0.000679447      3.80410     -53.5518 
-0.000375366      1.27201     -36.6897 
-0.000255613      5.88031      143.715 
-0.000605197      4.83322     -167.574 
0.000757910      3.48769     -104.275 
4.49477e-05      3.17043      140.889 
0.000646437     0.891067      80.9605 
4.48929e-05      7.29638     -48.4447 
-0.000432803      5.38568     -30.0880 
4.47508e-05      3.45254     -153.138 
0.00216617      7.90868     -51.1592 
-0.00266509      5.29683      163.549 
0.000218988      3.83401     -125.017 
0.000469341      4.91203      149.676 
-0.000910152      1.86687     -4.91657 
-0.00474043      6.56932     -137.715 
-8.53527e-05      4.94425     -82.3288 
0.000686014      3.07050     -13.9457 
-8.62195e-05      4.65124     -116.014 
-0.00201184      3.59494      82.0051 
-0.000609860      4.22682      123.615 
-0.00129236      3.16796      164.999 
-0.000979231      5.02589     -29.8297 
0.000170846      4.04772     -71.5651 
8.76867e-05      7.13442     -58.7608 
-0.000834690      7.21202     -65.0695 
-0.00181753      7.28401     -53.0357 
0.000638825      4.42900     -20.0715 
-0.000121060      3.45636      131.716 
4.38703e-05      2.95114     -55.7715 
-4.38187e-05      6.86105     -125.868 
0.00255630      6.27407     -124.349 
0.000286486      3.35529      154.962 
4.36890e-05      5.43073      159.296 
0.000678812      5.18139      168.647 
0.00208802      5.43783      159.099 
0.000545632      7.16190     -58.7070 
0.000249193      1.51921      106.049 
-0.000127501      6.63304     -44.3892 
0.000557755      4.41584      170.879 
0.000595928      5.53971      30.3607 
0.000399475      7.26815     -48.4581 
0.00106531      4.50657      14.6530 
0.000484883      3.76303      121.747 
-0.00104821      4.87955      171.040 
0.000694846      2.08586      75.5640 
0.000508112      4.16043     -89.1737 
-0.000405108      4.29031     -137.834 
0.00236026      1.83172     -58.3925 
-0.000367936      2.03027      161.030 
-0.000194399      3.98080      1.15152 
0.000905845      3.84552     -125.261 
-0.000766489      3.40147     -24.3045 
-0.000243326      2.69874     -168.024 
0.00205003      5.96161      148.443 
-8.29715e-05      2.41081     -67.0511 
4.22383e-05      3.37763     -102.308 
0.000118122      3.96550      161.474 
-0.000778388      6.05818     -114.788 
0.000699969      4.25699     -67.0488 
-0.000367310      5.68823      150.280 
-0.000561333      2.71897      47.9815 
-0.000617781      1.32966     -136.219 
0.000117231      3.44383     -152.691 
-8.23785e-05      5.94660     -55.8289 
0.000385126      3.33766     -45.4855 
-0.000777381      4.53894     -147.781 
-4.17643e-05      3.80636     -3.31342 
0.000206261      7.60768     -58.9846 
0.00250777      7.23726     -129.055 
-0.00251519      3.82753     -3.59501 
-0.000389998      6.84935     -125.732 
0.000396039      5.58168     -62.7004 
-0.000542412      5.41302     -30.1650 
-0.000440682      4.95746      24.8074 
-0.000712878      2.83069     -47.2906 
-0.00143192      4.81805     -167.291 
-0.000148600      3.45913      164.919 
-0.000241377      2.75485      153.249 
0.000385415      2.74591     -132.639 
0.000654005      5.85139     -138.464 
-0.000227548      2.04402      126.646 
-0.000278382      4.25206      131.186 
-0.00162121      7.00483     -117.736 
-0.000150694      4.20305     -98.2072 
-0.000473577      3.82335      39.2683 
-4.07965e-05      3.22273     -61.0490 
0.00176099      7.15153     -58.8439 
0.000528366      7.59739     -59.1138 
-8.07862e-05      1.48661     -95.4038 
-0.00109341      6.05376     -50.6307 
-0.000488803      6.18983     -113.417 
-0.000233907      5.37777     -49.6761 
-4.04846e-05      4.17555     -94.9460 
-0.000561928      4.43766     -123.977 
0.00241784      7.62483     -59.0620 
0.000966809      3.14229      140.942 
-0.000650022      7.50906     -121.827 
-0.00103152      4.54805     -129.289 
0.000224312      1.56780     -156.705 
0.00849185      7.93680     -51.1373 
-0.000557081      5.04325     -29.7167 
-0.00231933      3.21279     -137.270 
0.00140678      7.59979     -124.276 
-0.000118472     0.483322      114.444 
0.000143890      3.99104     -72.2006 
-0.00406311      6.84251     -63.8094 
0.000155650      3.70799     -148.453 
-0.000151442      4.45533     -9.03948 
0.000598634      7.15598     -135.226 
0.00117664      4.21848     -18.5208 
-0.000181264      4.92443     -82.2977 
0.000535657      4.14502     -51.8583 
0.000372937      4.04079     -111.485 
-0.000579630      7.18546     -65.1469 
0.000327844      4.06546     -23.7908 
0.000372794      5.39192     -148.963 
-0.00178349      5.67087      150.180 
-0.000299691      2.36542      108.741 
0.000634235      4.93939      149.593 
7.80789e-05      5.55932      145.109 
0.000261649      2.25211     -33.4078 
-0.00207908      4.41244      45.3673 
-3.94289e-05      4.43558     -9.08007 
0.000294606      4.64155     -51.6486 
0.000288695      3.47333     -104.676 
-0.000342736      5.53176     -136.611 
0.000663099      4.13270     -52.0764 
-3.91425e-05      1.46670     -95.4774 
-0.000191333      3.44616     -24.3339 
0.000482012      3.81602     -53.3103 
-0.000596311      2.73701      153.060 
-0.00115439      2.04920      161.211 
0.00131680      6.55463     -70.0169 
0.000300715      6.05260     -71.5052 
-0.000215287      2.43705     -66.8014 
-0.000259241      6.85907     -44.6456 
-0.000625594      4.94777      25.1148 
7.67227e-05      4.16711     -111.393 
0.000710645      3.22416      78.5507 
-0.00489033      5.20865      139.828 
0.000263391      5.48934     -22.2666 
-0.000401041      7.14414     -46.4746 
0.00199875      3.49268     -104.593 
-0.00100470      3.84187      38.6598 
0.000182954      2.12462      22.7028 
-0.000676001      1.72012    -0.666198 
-0.000349427      1.44886     -96.3402 
0.000685847      4.70208      131.897 
0.000295301      5.58716      145.058 
-0.000185953      4.71580     -114.826 
-0.000185439      6.33795     -46.5343 
-0.000505263     0.491935      116.565 
7.56821e-05      4.16019     -89.4491 
-0.000532579      1.19817      123.425 
-0.00160138      7.29986     -56.3970 
-0.000748709      2.73240      47.6699 
0.000112816      3.25576     -169.380 
-0.000421642      2.35372      24.6051 
-0.000398722      4.55337      158.619 
-0.000554285      7.05050     -56.8058 
0.000110274      4.58052      154.666 
-0.000218736      4.26713      131.009 
7.50626e-05      4.92930      149.794 
0.000413154      4.14560     -110.621 
-0.00356104      4.85979      171.003 
-0.00140293      7.15891     -65.2249 
0.000741321      5.93542      146.685 
0.00286912      6.69928     -107.191 
-7.47113e-05      3.05660      102.854 
0.000495334      4.42412     -37.2843 
0.000319952      7.30887     -115.443 
-0.000146383      5.09372     -110.214 
-0.00101918      1.84532     -4.35108 
0.000354652      2.73649     -54.2189 
-0.000287869      2.45088      152.808 
-3.72508e-05      5.32169     -84.8251 
-0.00142250      7.29605     -52.9102 
-0.000287775      5.40596     -49.6516 
0.000110389      3.77359      122.005 
-0.000447719      5.56820     -155.829 
0.000983960      3.76021     -89.3905 
-0.000142429      5.86420      143.599 
0.000322015      3.23611     -169.315 
-0.000211102      3.50091     -23.9293 
0.000431711      7.03901     -48.1096 
-0.000926375      5.53263     -136.904 
-7.18046e-05      2.20690     -46.4688 
-3.67691e-05      5.12269     -29.4674 
-0.000314652      3.08058      103.134 
-0.00114711      4.42900      159.928 
0.000655459      5.57136      32.0926 
0.000721164      2.00340      104.452 
-7.22958e-05      1.42127     -39.2894 
0.000139764      4.59848      146.172 
0.000716730      1.63218      107.103 
0.000706030      3.08992     -13.8564 
-0.000141953      5.41324     -128.098 
-0.000106551      2.80863     -94.4926 
-0.000741654      2.70895     -175.342 
0.00177913      5.46326     -22.1520 
0.000392168      3.82753      123.275 
0.00127225      6.33024     -40.1301 
-0.00124521      5.72503      152.540 
3.62449e-05      2.61266     -109.683 
0.000106550      2.35262      64.3063 
0.000282776      4.83735      133.995 
0.000549604      6.07157     -71.5651 
-0.000140479      4.25455      123.690 
7.14927e-05      5.73163      38.9096 
-0.000239930      3.51920     -23.7972 
-0.000591002      6.36622     -46.5275 
0.000646598      3.43936     -55.6631 
0.000411556      4.29609      52.7567 
-0.000445602      7.49853     -121.698 
-3.59415e-05      4.93725      26.4613 
0.000106616      3.85040     -124.846 
0.000375853      4.95665      149.710 
0.000874794      4.24924     -67.2972 
0.000313997      5.85317     -138.740 
7.05863e-05      7.05391     -48.2181 
-7.00214e-05      6.04728     -62.4180 
7.06283e-05      5.83644     -138.334 
0.00239433      5.39429     -152.390 
-0.000777554      4.92837      26.2531 
-0.000244502      6.06801     -114.538 
-0.000304353      5.59292     -104.285 
7.00906e-05      3.38189      154.799 
0.00304851      5.97210      148.279 
0.000346322      4.66480     -163.818 
7.06547e-05      5.61502      145.008 
0.00246146      5.55442      32.2022 
0.000103317      1.51380      105.322 
0.000138675      4.23835      32.8652 
-0.000635504      3.30388      177.224 
0.000273576      1.30231      137.490 
0.00241349      5.20200     -12.4332 
0.000301559      3.73620      137.169 
-0.000173519      4.53277     -147.432 
-0.000831729      2.71919      152.870 
-0.000138355      5.49945     -48.8337 
-0.000342977      6.84485     -44.7632 
0.00180768      4.84124     -151.635 
6.98242e-05      2.13242      23.1986 
0.000406446      6.34315     -40.2682 
-0.000400984      3.42660     -132.161 
-0.00138911      4.54612      158.854 
-0.000725564      1.79622      161.162 
0.000340195      3.82800     -53.0702 
0.000170469      3.86186     -125.089 
-0.000101176      3.87783      57.2115 
-0.00158189      7.35587     -46.3220 
0.000638275      3.81083      123.440 
0.00194174      6.85965     -45.8269 
0.000103180     0.888144      82.2348 
0.000272560      5.64287      144.958 
3.47594e-05      2.73240     -132.330 
0.000872535      7.06725     -48.0972 
-0.000133745      1.39313     -39.1737 
-0.000657571      4.32800      126.923 
-6.88830e-05      2.30868     -85.0303 
-0.000168237      2.52389      93.1798 
0.000200739      2.74263      87.4923 
-0.000302809      5.03051      159.764 
0.000102633      2.27068      95.5599 
0.000202092      1.52958      152.765 
-0.000369285      6.08621     -114.460 
0.000227505      3.04105      1.50744 
6.82925e-05      2.73386     -131.738 
-0.000134419      5.34344     -84.6308 
-6.77436e-05      1.68404      127.278 
0.000102597      1.71406      41.6891 
-6.85440e-05      5.06194      1.58486 
0.000168268      4.41130      24.9384 
0.000403462      4.85127      134.165 
-0.000338367      8.21815     -128.181 
0.000335802      3.11416      140.995 
-0.000710523      1.80189      81.0604 
-0.000167129      5.66057      142.320 
-0.000614386      2.28876     -84.9869 
-0.000726427      6.23670     -45.1299 
-0.000267624      5.69228     -127.434 
0.000234362      3.42660      154.781 
-0.000324867      5.41893     -49.4904 
0.000422923      6.46272     -56.9984 
6.78449e-05      3.21111      27.0438 
-0.000232297      3.95171      21.3706 
3.39649e-05      3.18201     -44.7454 
0.000700582      5.35798     -25.8955 
-0.000294431      5.08193      1.57862 
0.00175127      1.84228     -57.8628 
-0.00153710      4.78351     -166.952 
0.00140011      3.83854      123.524 
-9.90888e-05      4.18918     -98.7878 
0.000199302      5.83815     -138.611 
3.37998e-05      3.21646     -169.249 
0.000511512      3.95990     -72.6632 
9.92751e-05      4.67269     -102.609 
0.000480468      2.29260      96.0090 
-0.000198429      4.51593     -147.295 
0.000776087      4.68875      131.715 
0.000418761      3.91775      63.9582 
-3.36917e-05      4.72563     -114.504 
-0.000622088      5.29592     -154.499 
-0.000319829      1.31529     -134.384 
0.000704415      2.67858      164.407 
-0.000187469      4.92179     -82.5284 
9.95657e-05      2.72059     -131.424 
0.000291787      4.02959     -111.854 
-6.66512e-05      4.43234     -124.335 
0.000679028      3.20206      26.7251 
0.000418983      1.69918      42.1376 
0.000955316      4.68402     -163.887 
-0.00182020      7.13238     -65.3034 
-6.63507e-05     0.501199      118.610 
0.00110675      7.12407     -58.8983 
0.000130985     0.905538      83.6598 
-0.000411543      4.44639      137.917 
-0.00182128      6.49384     -46.6223 
-6.64916e-05      1.28406     -37.4054 
9.86263e-05      2.90689     -122.925 
0.00106805      2.58936      4.87390 
-0.00166991      3.71397      112.145 
-0.000889409      6.81657     -44.7623 
-9.90073e-05      6.61891     -131.202 
0.000257739      1.55756     -155.739 
-9.84230e-05      3.50297      164.774 
-0.000691415      2.74722      47.9508 
-0.00113258      6.96488     -132.440 
-0.00174891      8.11818     -51.8031 
-0.000504307      5.26642     -87.1702 
-0.000351597      3.10006      103.050 
-0.000718654      5.04401      143.221 
0.00143429      5.64429      25.8387 
-6.58042e-05      3.86083      38.0572 
0.000670245      4.82299      134.160 
-0.000777234      2.84429     -46.9946 
-9.81869e-05      4.06123     -59.5201 
0.000598382      4.43928      24.4867 
-0.000128838      1.43136     -97.2243 
-0.00122694      5.42896     -84.0794 
0.000720988      6.90837     -70.2011 
-0.000223951      3.02106     -178.483 
0.000716944     0.929731     -71.1753 
0.000221457      1.31712      138.077 
0.000127850      5.67073      144.909 
0.000188695      4.57073      146.240 
0.00105806      5.44500      158.902 
-0.00164989      4.41235      45.0000 
0.000820061      3.01423      140.925 
0.000160276      3.84005     -52.8317 
-0.000222734      5.53971     -58.4332 
0.000755708      4.96677      149.511 
0.00107277      5.01143      137.588 
-6.43239e-05      6.39450     -46.5208 
-0.000225007      3.88021      37.4606 
-3.25644e-05      4.25403      130.806 
-0.000479282      6.99648     -117.957 
0.000252005      3.78048     -89.0906 
0.000590781      5.59131     -42.5356 
-3.25181e-05      4.29223     -143.717 
-0.000284528      5.75361     -75.0942 
-0.00173799      7.32407     -52.8798 
3.24931e-05      3.80000     -53.1301 
-0.000378523      6.11444     -114.134 
3.24739e-05      5.10314      165.474 
-0.000285573      6.60575     -131.072 
-0.000187764      2.96810      127.333 
-3.24423e-05      4.76403     -113.767 
-0.000556588      2.01604      126.529 
0.000852747      5.12250      165.530 
0.000159882      3.45323      154.622 
-0.000687169      5.28186     -65.8613 
-0.000255790      4.50999     -146.944 
0.000648379      5.48179     -157.927 
9.59074e-05      1.50266      153.094 
-0.000319672      5.79714     -124.458 
-6.45200e-05      2.81603     -47.0146 
0.000379306      4.48723      14.7176 
0.000218137      4.38018     -37.3931 
0.000218772      4.23249      33.2395 
0.000598247      6.90162     -70.3573 
-0.000478738      5.64004      37.0731 
0.000778556      5.79396     -105.619 
0.00102026      5.65410      147.715 
0.00361778      4.90783      45.8255 
0.000126521      4.43806     -172.491 
-0.000187624      4.03386     -59.6209 
-0.000253688      4.77435     -113.451 
-0.000463522      1.31210     -37.5686 
0.000617415      7.52130     -125.803 
-0.000344467      3.95904      21.6402 
-3.21425e-05      5.06004      143.357 
6.35019e-05      1.61443     -138.013 
0.000159047      3.47851     -55.3048 
-9.51584e-05      4.42719     -124.695 
-0.000464669      4.91935      26.5651 
-0.000654222      8.13056     -51.6924 
-0.000593277      5.54725     -137.045 
6.36173e-05      6.89142     -110.381 
-0.000157031      4.18617     -98.5172 
-0.000219837      3.41321     -131.912 
-0.000373051      1.77088      161.565 
-0.00132480      5.31398     -154.592 
-0.000251451      5.54552     -69.0812 
0.000398693      4.45789     -172.524 
-0.000125298      3.47851      145.305 
0.000374901      1.97585     -21.3706 
-0.000614995      4.89902     -145.142 
-0.000280858      3.55106      99.7276 
-0.000371530      1.80400     -3.81407 
-0.000523072      5.56004     -156.017 
-0.000615070      3.88402      37.0469 
-0.000922510      5.80848     -124.620 
0.000154811     0.903549      84.9204 
-0.000339071      5.62409      37.1959 
-0.000585169      4.30000      126.870 
3.15354e-05      5.26745      39.9170 
-0.000249747      4.49324     -146.805 
0.000124558      6.31611     -97.6426 
0.000278683      3.47988      154.466 
9.41039e-05      3.45068     -55.3889 
-0.000123952      3.26300      177.541 
-3.14340e-05      1.70012    -0.674035 
0.000216116      6.88448     -110.225 
0.000155264      3.81203     -52.8896 
0.000399953      4.55386      134.644 
-0.000396975      2.48073     -119.458 
0.000154455     0.480833      45.0000 
-0.000491900      6.97883     -118.034 
9.28875e-05      5.04004      37.0973 
3.13332e-05      1.52053      153.435 
0.000124863      4.67547      131.532 
0.000306769      3.18057     -35.7890 
-0.00104167      5.62800      36.9106 
-0.000611223      4.78481     -113.136 
-0.000580314      5.41893      40.5095 
-0.000518896      5.45094     -83.8920 
0.000245844      3.21104      26.2459 
-0.000338955      5.52482      146.367 
0.000124004      3.48993     -55.0349 
-3.10964e-05      2.87179     -72.5746 
-0.000305724      2.70141      152.676 
0.000884681      4.70370      131.553 
0.000337145      6.27936     -124.095 
-0.000153105      4.42222     -125.056 
0.00201416      7.95238     -51.2277 
-0.000548030      6.97062     -118.256 
-0.000335369      3.04059     -178.869 
3.10064e-05      3.72263      137.395 
-0.000396038      4.95827     -158.714 
-0.000274402      3.07610      102.771 
-3.09558e-05      5.55676     -58.5411 
-9.24708e-05      5.53841     -69.2744 
-0.000275576      6.59263     -130.941 
-0.000426678      7.00337     -63.3618 
0.000456941      5.74178      31.0322 
0.000517241      4.80866      134.326 
-9.24552e-05      3.79104     -9.41263 
0.000760189      7.59392     -123.941 
0.000184141      3.59227     -53.8319 
-0.000182452      5.01175      159.685 
-9.23765e-05      4.48754     -146.452 
-0.000303917      5.56723     -58.3655 
0.00106373      5.24370      165.646 
-0.000151952      4.53542     -129.094 
6.13536e-05      4.43441      15.1645 
-0.000213670      1.66012    -0.690275 
0.000486221      1.95724     -21.5840 
-0.000516555      3.76808     -9.16235 
3.07283e-05      1.48930      104.783 
-0.000455261      4.47088     -146.310 
-0.000242811      3.52800      99.4623 
-9.13170e-05      4.17253     -99.1011 
0.000121209      4.16432     -110.524 
-0.000636772      7.34207     -46.4349 
3.05919e-05      3.87340     -125.331 
-0.000212012      5.51264     -69.3953 
-0.000121650      2.70740     -175.764 
-0.000242390      3.94046      21.7474 
-0.000212246      3.11365      115.084 
0.000454225      5.02621      137.742 
3.05332e-05      4.01856     -112.225 
0.000121180      3.92658      63.6960 
0.000181853      4.41511      15.2324 
-9.08008e-05      5.84811      143.483 
0.000242190      3.50657      154.312 
-0.000302530      5.54833     -137.337 
-0.000241968      1.75191      161.358 
6.09461e-05      4.70323     -163.954 
-0.000332730      5.55255      146.310 
0.000332654      3.60411     -53.5752 
0.000121270      4.22682      33.6149 
6.05855e-05      6.31880     -97.8223 
-9.07517e-05      5.74850     -75.2869 
0.000332419      6.87360     -45.7073 
0.000151293      2.98610      140.981 
-3.03919e-05      5.06253      1.81112 
0.000483372      5.41202     -152.488 
0.000211477      4.71699     -164.255 
-6.04312e-05      3.45068      145.389 
6.04800e-05      3.88500     -125.572 
3.03577e-05      4.24156     -67.5464 
3.03475e-05      4.28173     -18.5196 
6.04194e-05      4.03708     -112.118 
-0.000180964      3.80757     -3.61388 
0.000150847      3.36618     -110.158 
0.000151080      3.47845     -104.995 
-9.06039e-05      5.65353      150.079 
0.000120646      5.73665     -107.866 
-6.05396e-05      2.76065      47.6425 
6.04276e-05      2.65398      164.707 
-0.000150897      6.58167     -130.564 
6.03776e-05      5.17749      168.864 
-3.02454e-05      6.10442     -114.382 
-0.000150797      3.68505      116.426 
-0.000180822      2.76210      48.2286 
6.02689e-05      3.55106     -20.7827 
0.000120645      1.85300     -57.3391 
-0.000120460      1.64012    -0.698692 
0.000120451      6.92719     -70.2572 
-0.000120504      5.13626      143.710 
9.04511e-05      6.29060     -124.246 
-3.02031e-05      6.42209     -133.738 
3.01646e-05      5.25464      39.7497 
3.01446e-05      3.19312      26.4046 
3.01326e-05      2.99393      69.2648 
-0.000120377      6.43593     -133.867 
0.000150523      6.19367      144.462 
3.01108e-05     0.901998      86.1859 
3.00859e-05      6.89638     -110.011 
3.00923e-05      6.43506     -57.0508 
3.00815e-05      4.42109      24.5941 
-3.00725e-05      4.92967      25.2135 
3.00750e-05      3.20225      25.9249 
6.01404e-05      4.47518     -172.811 
6.01192e-05      1.88064     -57.1549 
3.00915e-05     0.921955      93.7314 
-3.00654e-05      3.74833     -9.21103 
-6.01119e-05      4.97168     -17.5603 
3.00545e-05      4.39582      15.3008 
-3.00532e-05      5.12640     -159.444 
3.00570e-05      3.85217     -52.5946 
3.00499e-05      4.58214      134.646 
