! Center RA: 17 33 02.70578,  Dec: -13 04 49.54823 (2000.0)
! Established model.
! Flux (Jy) Radius (mas)  Theta (deg)  Major (mas)  Axial ratio   Phi (deg) T \
! Freq (Hz)     SpecIndex
   1.76874    0.0200000      180.000 
 0.0601236    0.0400001      180.000 
 0.0572662    0.0632455      161.565 
  0.389960    0.0824620      165.964 
 0.0183212    0.0447213     -26.5651 
 0.0167502    0.0632455     -18.4349 
 0.0921203     0.164924      165.964 
 0.0155343     0.107703     -21.8014 
 0.0979632     0.126491     -18.4350 
 0.0837147     0.184391      167.471 
 0.0142308     0.101980     -11.3099 
0.00638953     0.145602     -15.9454 
0.00595637     0.121655     -9.46232 
0.00555740     0.141421     -8.13009 
 0.0228218     0.161245     -7.12501 
 0.0176526     0.181108      173.660 
0.00379227    0.0848528     -45.0000 
 0.0104139     0.160000      0.00000 
 0.0150521    0.0721110     -56.3100 
 0.0114687     0.107703      21.8014 
0.00591250      1.97312     -10.5126 
 0.0113306      2.01613     -10.8641 
 0.0107219      1.95346     -10.6197 
 0.0105416      2.45569     -12.2251 
0.00591860      1.68024     -8.90172 
0.00901398      2.49904     -12.4791 
0.00525588     0.855102     -10.7843 
 0.0123432      1.27279     -8.13010 
0.00239425      1.70000     -8.79741 
 0.0138307     0.859069     -12.0948 
 0.0130676      1.74413     -3.94519 
0.00310275      1.25028     -7.35238 
0.00179363      1.22801     -6.54629 
0.00663116      2.60538     -12.8628 
 0.0147730      1.26143     -2.72631 
0.000959076      1.73954     -8.59591 
0.00290658      1.75932     -8.49856 
0.000790964      1.08683     -12.7575 
-0.00868086      2.58132     -10.2651 
-0.00130333      2.03273     -13.0791 
0.00669390      1.90379     -9.06650 
 0.0116031      1.27012     -7.23692 
0.00782515      1.74562     -4.60010 
 0.0163208      2.26645     -15.8759 
0.000727892      1.90704     -9.65989 
 0.0141964      2.45153     -11.7683 
0.00277349     0.851587     -9.46232 
-0.00218440      2.09122     -12.7071 
0.00198181      2.43195     -11.8644 
-0.00344544      2.57783     -9.82772 
-0.00885402      2.04783     -12.4074 
-0.000915835      2.06737     -12.2883 
 0.0832173     0.144222      33.6901 
0.00540536    0.0824621     -75.9638 
-0.0355874     0.241661     -155.556 
 0.0132678    0.0800000     -90.0000 
 0.0166103     0.128062      38.6598 
-0.0278679     0.295296      28.3008 
 0.0144034    0.0824621     -104.036 
0.00174997     0.101980     -78.6901 
-0.00183895     0.452548     -45.0000 
0.00114636     0.100000     -90.0000 
 0.0135608    0.0894427     -116.565 
0.00437360      1.76647      15.7672 
0.000949652      1.94659      4.71475 
0.00579477      1.96652      4.66686 
0.00603281      1.84098      1.86768 
0.000720852      1.74723      15.9454 
3.23480e-05      1.75283      16.5740 
0.000572583      2.20082     -1.56222 
-0.00250379      1.73367      16.7626 
0.00346284      1.98645      4.61992 
0.00244737      2.18358      8.42697 
0.00285376      2.18083     -1.57655 
0.000487069      1.98816      5.19443 
0.00233015      1.57709      12.4500 
0.000704455      1.94833     -5.30093 
0.00116616      1.92666     -4.76364 
0.000371129      2.16083     -1.59114 
0.00255257      1.06170     -3.23970 
0.00182007      2.16148     -2.12110 
0.00430770      1.49345      7.69605 
0.000818348      1.94659     -4.71475 
0.000329431      1.57290      11.7386 
0.00146338      1.73954      17.3933 
0.00147379      1.04173     -3.30187 
0.00146290      2.44663     -8.46129 
0.00193292      2.00639      4.57392 
-0.00130516      1.20830     -12.4259 
0.00134121      1.59248      11.5922 
0.000495117      1.72047      17.5924 
0.00177977      1.96499      4.08562 
0.00245466      1.72800      16.1276 
0.00150240      1.98494      4.04449 
0.000883522      1.88096      1.82797 
0.000810496      1.90851     -5.41187 
0.000760091      1.86097      1.84761 
0.00163236      1.71453      16.9553 
0.000346946      1.86687     -4.91657 
0.000331312      1.26000      0.00000 
0.000326028      1.47105      7.02840 
0.00665931      2.18147     -2.10165 
0.000891014      1.08167     -3.17983 
0.000581378      1.58858      10.8855 
0.000582715      1.88680     -4.86451 
0.000703463      1.26016     0.909382 
0.00118489      1.70141      17.7960 
0.000459617      1.60823      10.7510 
0.000472641      2.44965     -8.92399 
0.000632676      2.46941     -8.85200 
-0.000618161      2.52198      2.27245 
0.000407876      1.61208      11.4493 
-0.00105032      2.57992     -7.12502 
0.00552724      1.64694     -24.3864 
0.00117120      1.62874     -24.6769 
0.000537557      1.26127     -27.3777 
0.00511229      1.30599     -27.3499 
0.00867061     0.667533      8.61565 
0.00167479     0.511077     -30.5792 
0.00365051     0.493964     -31.7595 
0.00135647      1.66517     -24.1022 
0.000937756      1.51605      8.34389 
0.00147100      1.68345     -23.8243 
0.00346315     0.568858     -10.1247 
0.00129131      2.02485      3.96466 
0.00102801      1.60462      10.0493 
0.00149685      1.70176     -23.5523 
0.000271662      2.18073      7.90716 
0.000511447      1.62788      10.6197 
-0.00273018      1.01980     -11.3099 
0.000252638      1.72256      15.4885 
0.00187598      1.89842      16.5258 
0.00152696     0.483735     -29.7449 
0.000571080      2.00489      4.00417 
0.000266196      2.20336      8.35075 
0.00210782     0.466476     -30.9638 
0.00164568      1.93132     -15.6194 
0.000260397      1.33297     -27.7185 
0.00271947      2.20145     -2.08256 
0.000906139      1.50360     -28.6105 
0.000458976      1.73666      14.6764 
0.000235737      1.70763      18.4349 
0.000639594      1.62432      9.92625 
0.000427983     0.651153      10.6197 
0.000421005      1.72012     -23.2861 
 0.0118841     0.101980     -101.310 
0.00771235     0.170880      20.5560 
0.00573744     0.152315      23.1986 
-0.0231000     0.226274     -135.000 
-0.0219003     0.286356      24.7751 
0.000321427     0.121655     -80.5377 
0.00198761     0.120000     -90.0000 
 0.0121322     0.107703     -111.801 
-0.0220363    0.0632456      18.4350 
0.00913158     0.116619     -120.964 
 0.0107618     0.128062      51.3402 
0.00611908     0.128063     -128.660 
0.000255727     0.128063     -141.340 
-0.00313899     0.161245     -29.7449 
0.00213592     0.144222     -146.310 
0.00200783     0.141421      45.0000 
0.00613435     0.161245     -150.255 
0.000247517     0.134164      63.4350 
0.000665663     0.164924     -75.9638 
0.00521701      3.22025      53.8418 
0.00235175      3.48023      52.4716 
0.00280038      2.70562      48.2961 
0.00610347      3.46808      52.7336 
0.00253504      2.19572      20.2506 
0.00787738      2.89178      48.9259 
0.00226640      3.21310      54.6282 
0.00122526      2.50799      32.2960 
0.00596463      2.70740      48.8937 
0.00341024      1.93536      18.0605 
0.00320806      3.20656      55.4179 
0.00416170      2.52492      32.0535 
 0.0106174      2.87673      48.6642 
0.00145301      2.22657      19.4115 
 0.0106151      3.20062      56.2106 
0.00136126      2.20771      19.5840 
0.000868504      1.95438      17.8787 
0.00220775      2.52539      29.4072 
0.000834428      1.72186      2.66300 
0.000815768      1.06471      5.38931 
0.00275693      3.45601      52.9975 
0.00304619      2.26142     -2.02732 
0.00387407      3.47200      53.1961 
0.00566336      2.69236      48.6139 
0.00275431      2.90496      48.6285 
0.000434922      2.24143     -2.04541 
0.00156942      2.54189      31.8142 
0.000419976      3.66502      46.9902 
0.000391685      2.55891      31.5782 
0.00169829      2.21450      20.0715 
0.000759685      2.06243     -2.77917 
0.00122343      3.67967      47.2026 
0.00135029      2.06349     -3.33385 
0.00173704      3.69329      46.9749 
0.000686365      3.24006      52.7764 
0.00100448      3.21179      55.9141 
0.000674452      1.04480      5.49233 
0.000340817      2.54283      29.1859 
0.000982907      2.53559      32.4365 
0.00158535      2.28140     -2.00955 
0.000655504      1.46219     -3.13636 
-0.00360676      3.24746      40.7544 
0.000637826      2.28079     -1.50744 
0.00121693      3.70697      46.7489 
0.00115555      2.55812      26.9657 
0.00289595      2.54951      27.5701 
0.000359311      3.46006      53.4613 
0.00156245     0.141421     -135.000 
0.00125726      2.85328      26.2058 
0.00130097      2.02247     -2.83411 
0.000651425      2.55249      32.1957 
0.000332086      2.86252      27.4602 
0.00123211      2.57597      31.3452 
0.00127385      2.87868      49.2260 
0.000886341      1.00499      5.71059 
0.000291587      2.00250     -2.86240 
0.000576332      2.86356      48.9647 
0.00204066      3.63918      47.8958 
0.00611015      2.88998      48.3665 
0.00533974      2.22144     -2.06382 
0.00401544      3.65262      47.6630 
0.00120429      2.20227     -2.60256 
0.00145796     0.961873      3.57633 
0.000908197      2.58643      31.7236 
0.00175491      2.67649      24.2668 
0.00168759      3.43208      53.5308 
0.000856517      2.59307      31.1153 
-0.00112595      2.37065      25.4841 
0.00497616      3.41602      53.3314 
0.00175495      2.42627      29.1005 
-0.00148192     0.885664     -6.48307 
0.00234494      2.12941     -5.38931 
0.000528042      2.51849      34.3211 
0.00282667      3.66612      47.4320 
0.00263923      2.65096      48.9767 
0.00262221      2.69474      24.0920 
0.000718685      2.84450      25.8444 
0.000475570      2.65307      49.5861 
0.00101967     0.943398      4.86452 
0.00118724      2.51340      34.9547 
-0.00139578      2.35262      25.6937 
0.000746937      2.53503      34.0662 
0.000256522      2.18229     -2.62640 
0.00134106      3.26098      51.7244 
0.000243823      2.61021      30.8885 
-0.00172958      2.83535      40.9958 
0.000893329      3.65141      47.2197 
0.000885377     0.923472      4.96974 
-0.000451567     0.581378      3.94519 
0.000225979      2.16231     -2.65069 
-0.000210731     0.384708     -8.97263 
0.000413665      2.83535      26.3843 
0.000207464      2.71301      23.9196 
! Tentative model.
! Flux (Jy) Radius (mas)  Theta (deg)  Major (mas)  Axial ratio   Phi (deg) T \
! Freq (Hz)     SpecIndex
0.00623071      1.94833      95.3009 
0.00609759      4.80433      32.7639 
-0.00865958      2.91822      101.464 
-0.00494367      3.65568      55.7014 
0.00240789      2.46455      105.051 
0.00265492      4.26343     -19.4549 
0.000392465      2.30825      98.9726 
0.00717598      3.69546      22.2621 
-0.000901389      2.94184      101.768 
-0.00191542      3.56034     -6.12693 
-0.000836763      2.47588      43.3634 
-0.00177800      2.24143      55.1755 
-0.00252553      3.64445      55.9611 
0.000603621      3.68462      22.6677 
0.00105607      2.20227      92.6026 
-0.00162208      4.10020      9.82989 
0.00128250     0.865563     -130.314 
-0.000795413      1.44069      103.650 
0.000978972      2.67507      64.7761 
-0.000520403      2.51436      111.463 
-0.000530818      2.15407      68.1986 
-0.00159293      1.65469     -63.4349 
-0.00162423      2.13551      67.9993 
0.000531989      2.70326      74.1128 
0.000109820      3.80552      6.63947 
-0.00315832      1.44554      104.421 
0.00193264      3.74833      7.04918 
-0.000936619      1.96041     -88.8309 
0.00100030      2.22729      94.6355 
0.000822290      2.51340     -34.9547 
-0.000313643      2.47524      44.0179 
0.000411882      3.01808     -34.7432 
-0.00144870      3.58022     -6.09277 
-0.00195709      3.93573     -9.65379 
0.000669697      2.50000      106.260 
-0.000668723      2.46089      44.3415 
0.00113608      1.82603     -28.8108 
0.000482082      2.69785      74.5214 
-0.00191474      2.96547      86.5201 
-0.00193348      1.98091     -88.2643 
-0.000570504      3.68570      38.6113 
0.00182040      2.52982     -34.6952 
0.00256740      3.07883     -34.4127 
-0.00362664      1.11946     -161.241 
0.00107411      1.53805     -77.2288 
0.000357450      2.20327      93.1221 
9.19359e-05      1.94659      94.7148 
-0.00266565      3.69822      38.8534 
-0.00199784      3.88978      50.0058 
-0.00112458      3.67723      13.2048 
-0.00287266      3.91602     -9.70286 
0.000839677      3.37615     -13.7070 
0.000931202     0.581378      86.0548 
-0.00244692      2.14308      67.5035 
-0.00505200      2.96007     -22.2327 
-0.000178137      3.70135      38.4181 
0.00108549      2.77417      84.2072 
0.00399420      1.92510      94.1704 
-0.000338940     0.468188      160.017 
0.00132176      1.84358     -28.5112 
-0.000173793      2.46073      45.0000 
0.000544916      2.66661      65.1648 
8.60352e-05      1.44499     -94.7636 
-0.00268562      2.39708      54.8513 
-0.00328132      1.98040     -88.8427 
-0.00163790      3.99400     -7.48089 
0.00239788      1.53375     -77.9574 
-0.000782054      4.14468     -24.2151 
8.48723e-05      3.72848      7.08690 
-8.50356e-05      2.47491      45.3274 
-0.00108693      3.08649     -3.71529 
0.00112863      1.44679     -95.5530 
0.00135699      3.69134      7.47156 
-0.00225392      2.47524      45.9821 
-0.000405949      3.41321     -21.3027 
-0.00224624      3.71171      12.7632 
-0.00283930      2.74263      92.5077 
-0.00129609      1.14140      101.113 
-0.000619857      3.66699      55.4432 
0.000311336     0.565685      81.8699 
-0.000650064     0.449444      159.146 
-0.000367858      3.43185     -21.1813 
0.000450554     0.528015      24.6236 
0.00310723      1.57429     -117.216 
7.72129e-05     0.831865     -99.6888 
-0.000990376      1.47526      105.732 
0.000369700      3.39559     -13.6270 
0.000445819      1.78941     -64.8670 
0.000151159      2.52492     -35.3266 
-0.000955761      3.68348      55.6197 
-0.000222508      2.96769     -22.5902 
-0.000640697      2.88312      77.9885 
0.000639688     0.568859      79.8753 
-0.000574689      4.03629     -7.68845 
0.00201984      4.79354      32.5629 
0.000871557      3.65437      7.86403 
-0.00284203      3.89631     -9.75242 
0.00152608      2.75231      112.652 
0.000349133      2.54126     -35.0659 
-0.000564797      2.98429      86.9267 
0.000551588      4.00005      5.73910 
-0.00163790      3.71381      38.6598 
0.000549434     0.501199      28.6105 
0.000746507      1.79800     -64.2900 
-0.00217059      1.98010     -89.4213 
-0.000881755      3.10644     -3.69139 
-0.00101481      2.38839      4.80349 
-7.08187e-05      3.73122      12.6954 
-0.00162231      3.69481      55.3637 
0.000410015      2.65827      65.5560 
-0.000945189      3.69670      13.1340 
-0.000339125      4.12645     -24.3290 
-0.00134388      1.11319     -162.216 
0.000470171      3.41977     -13.8737 
0.000803569      3.63456      7.90716 
-6.91045e-05      2.62480      7.88314 
-0.000333218      1.13772      100.125 
-0.000200299      3.69611     -24.6236 
0.000461522      3.71397      22.1452 
-0.000331056      2.98543      86.5434 
-0.000658963      1.39556      64.5367 
-0.000262013      2.07162     -105.110 
-0.000196156      2.50352      45.9710 
0.000130411      4.01995      5.71059 
6.53470e-05      2.65006      65.9497 
6.49759e-05      3.28353      62.0302 
-6.49595e-05      2.60500      7.94347 
6.45961e-05      1.35912     -32.9885 
