! Center RA: 04 33 11.09553,  Dec: +05 21 15.61921 (2000.0)
! Established model.
! Flux (Jy) Radius (mas)  Theta (deg)  Major (mas)  Axial ratio   Phi (deg) T \
! Freq (Hz)     SpecIndex
  0.296726    0.0223607     -116.565 
 0.0834965    0.0141422     -135.000 
 0.0325810   0.00999997     -90.0000 
0.00652735    0.0721111     -123.690 
0.00963280      0.00000      0.00000 
 0.0479472    0.0860232     -125.538 
 0.0121432    0.0141422      45.0003 
 0.0195460    0.0282842      45.0001 
 0.0612063    0.0360555      56.3100 
 0.0590233    0.0806226     -119.745 
 0.0283352    0.0316228      71.5651 
 0.0249131    0.0761577     -113.199 
 0.0153114    0.0300000      90.0000 
 0.0143709    0.0728011     -105.945 
0.00889848    0.0316228      108.435 
0.00736451    0.0707107     -98.1302 
0.00607566    0.0360555      123.690 
0.00671331    0.0700000     -90.0000 
0.00471110    0.0424264      135.000 
 0.0119708    0.0707106     -81.8699 
0.00355768    0.0500000      143.130 
0.00338366    0.0583095      149.036 
0.00411780    0.0728011     -74.0546 
0.00243100    0.0670820      153.435 
0.00387668    0.0761577     -66.8014 
0.00386217    0.0761578      156.801 
0.00365515    0.0806225     -60.2551 
0.00293061    0.0854401      159.444 
0.00279884    0.0948683      161.565 
0.00411071    0.0860232     -54.4623 
 0.0154123    0.0761577      23.1986 
 0.0311955     0.104403      163.301 
0.00257196    0.0921954     -49.3987 
 0.0271973    0.0989949     -45.0000 
 0.0127167     0.122066     -145.008 
 0.0639580     0.184391     -102.529 
0.00873405     0.231948     -97.4314 
0.00351050     0.174642     -103.241 
0.00368318     0.167631     -107.354 
0.00193004     0.170880     -110.556 
 0.0104150     0.230868     -94.9697 
0.00268836     0.165529     -115.017 
0.00509921     0.170000     -118.072 
0.00395440     0.174929     -120.964 
0.00752079     0.230217     -92.4896 
 0.0187631     0.180278     -123.690 
0.00619817     0.230000     -90.0000 
0.00504162     0.230217     -87.5105 
0.00218180     0.230868     -85.0303 
0.00625884     0.838153     -107.354 
0.000588191      1.08688     -115.622 
0.000382389      1.18680     -106.144 
0.00163799      1.08259     -115.145 
0.00584589      1.18962     -106.607 
0.000869561     0.841190     -108.004 
0.000673329      1.07838     -114.664 
0.00125083      1.07424     -114.179 
0.000314186     0.844334     -108.650 
0.00173553     0.460435     -87.5105 
0.000288911     0.847585     -109.290 
0.000714933      1.07019     -113.691 
0.00102430     0.709366     -111.501 
0.00582280     0.460977     -86.2686 
0.000399006     0.850941     -109.926 
0.000532771      1.06621     -113.199 
0.000128070      1.05849     -112.203 
0.000126013      1.06231     -112.703 
0.000369246     0.854400     -110.556 
0.000124253      1.05475     -111.701 
0.000243041      1.04403     -110.171 
0.000913267      1.40456     -109.983 
0.00140270      1.04062     -109.654 
0.000677967     0.857963     -111.181 
0.00105046      1.19252     -107.067 
0.00122835     0.713092     -112.249 
0.00286273      1.40118     -109.599 
0.000106622      1.10059     -118.195 
0.000506543     0.861626     -111.801 
0.000100409      1.10535     -118.652 
0.00314254     0.878465     -112.770 
0.000187302      1.11018     -119.105 
0.000803468      1.19549     -107.526 
8.86437e-05      1.11508     -119.554 
8.54011e-05      1.12004     -119.999 
0.000162816      1.12508     -120.440 
0.000619934      1.19854     -107.981 
0.000153780      1.13018     -120.877 
0.000151416     0.715891     -114.775 
0.000144835      1.13534     -121.310 
0.000143879     0.720139     -115.498 
0.000605769      1.20167     -108.435 
0.000267546      1.15434     -121.900 
6.89741e-05     0.728972     -116.917 
0.00396442      1.41060     -109.463 
6.71303e-05     0.738241     -118.301 
0.00201952     0.461736     -85.0303 
6.61528e-05     0.747930     -119.650 
6.44728e-05     0.752928     -120.311 
0.000186561     0.758024     -120.964 
0.000183027      1.20487     -108.886 
0.00140758      1.14586     -122.164 
6.01232e-05     0.763217     -121.608 
0.000117021      1.23130     -110.937 
0.000116557     0.768505     -122.242 
0.000114111      1.23491     -111.371 
0.000111105     0.702282     -109.983 
0.000324143     0.773886     -122.869 
0.00230857      1.23859     -111.801 
0.000101252     0.698928     -109.213 
0.00443058     0.765506     -123.275 
0.000136847     0.695701     -108.435 
0.00172354     0.462709     -83.7966 
0.000121721     0.692604     -107.650 
0.000177701     0.689638     -106.858 
0.000181925     0.686804     -106.060 
0.000267739     0.463896     -82.5686 
0.000106157     0.684105     -105.255 
0.00833651     0.667083     -102.995 
0.000765534     0.460109     -91.2454 
0.000792721     0.460435     -92.4896 
0.000359887     0.460977     -93.7314 
 0.0126995     0.478017     -105.781 
0.000339854     0.827103     -104.708 
0.000890702     0.824621     -104.036 
0.000166011     0.460000     -90.0000 
0.000248617     0.460109     -88.7546 
0.00104026     0.822253     -103.360 
5.80981e-05     0.820000     -102.680 
0.00555886     0.676831     -102.804 
0.000191141     0.757166     -123.690 
0.00579222      2.46789     -111.888 
0.00245541      1.90079     -115.891 
0.000803732      2.19180     -117.734 
0.000667581      2.36578     -116.348 
0.000335106     0.417732     -132.089 
 0.0330278     0.120830     -114.444 
0.00180781      2.19647     -117.965 
0.000625800      2.68263     -113.507 
0.000822293     0.411096     -131.055 
0.000212741      2.26374     -111.237 
0.000504678      2.37023     -116.565 
0.000302605      2.26013     -111.001 
0.00232880      2.67866     -113.311 
0.000467865      2.25657     -110.764 
0.00128342      2.39270     -117.101 
0.00254617     0.396989     -130.914 
0.00248076      2.39727     -117.313 
0.000512688      2.25304     -110.526 
0.000259334      1.88743     -115.750 
0.00190078      1.89180     -116.023 
0.00278341     0.390513     -129.806 
0.000688084      2.46418     -111.672 
0.000687498      2.24956     -110.288 
0.000901643     0.618466     -129.094 
0.000535357      2.44755     -111.323 
0.00209382      2.40187     -117.525 
0.00105727      2.20118     -118.195 
0.000969095      2.24611     -110.048 
0.00395268     0.624820     -129.806 
0.00177780      2.40651     -117.736 
0.000963507      2.74898     -106.919 
0.000906822      2.24270     -109.808 
0.000604276      2.22657     -109.411 
0.000212046      2.73364     -106.579 
0.00125219      1.88282     -116.157 
0.00167793      2.41118     -117.947 
0.000947091      2.22326     -109.168 
0.000616207      2.20592     -118.424 
0.000936131      2.69579     -113.617 
0.00178921      2.74609     -106.719 
0.00109741      2.22000     -108.925 
0.000529978     0.403609     -131.987 
0.00138205      2.41588     -118.156 
0.000358359      2.21070     -118.652 
0.00150067      2.21678     -108.680 
0.00152619     0.117047     -109.983 
0.000379144      1.88725     -116.429 
0.000205061     0.410366     -133.025 
0.00141659      2.69180     -113.422 
8.22826e-05      2.21551     -118.879 
8.11776e-05     0.384187     -128.660 
0.00198193     0.580086     -125.882 
0.00284836     0.600000     -126.870 
5.45591e-05      2.21472     -118.301 
0.000347937      2.45862     -111.975 
0.000785219      2.21948     -118.528 
0.000438546      2.46238     -112.190 
0.00105203      2.68784     -113.227 
0.000758598      2.51098     -114.217 
0.000761132      2.22428     -118.754 
0.00108611      2.77973     -108.891 
0.000372816      2.23933     -109.568 
0.000452207      2.22910     -118.980 
0.000647705      1.87459     -114.925 
0.000354248      2.68392     -113.030 
0.000279874     0.467547     -138.468 
0.00526575     0.460977     -139.399 
0.000250171      2.21359     -108.435 
4.88521e-05     0.114017     -105.255 
0.00161046     0.378021     -127.476 
0.000907992     0.372022     -126.254 
0.00166282     0.574282     -125.074 
0.00180926     0.594054     -126.098 
9.67019e-05     0.366197     -124.992 
 0.0123363     0.340147     -114.305 
0.000640101      2.23397     -119.204 
0.000184574      1.88367     -114.796 
0.000787833      2.78298     -109.086 
0.000696873      1.87040     -114.647 
0.000174593      2.67615     -112.636 
0.000178053      2.25743     -119.745 
0.000200415      2.67232     -112.438 
0.000387445     0.360555     -123.690 
0.000227868     0.355106     -122.347 
 0.0217418     0.125300     -118.610 
5.53011e-05     0.353553     -118.740 
0.000567104     0.348855     -117.300 
0.00158690     0.568595     -124.249 
0.000727146     0.344383     -115.821 
0.00215286     0.588218     -125.311 
0.00130937      2.26742     -120.184 
0.000390111      2.38365     -116.673 
0.000235743      2.38816     -116.887 
 0.0278340     0.130384     -122.471 
0.00245317     0.162788     -132.510 
0.00225503     0.169706     -135.000 
8.13796e-05      2.37034     -116.025 
0.000276376      2.37474     -116.241 
1.94075e-05      1.87949     -114.520 
0.000126771      1.87537     -114.242 
0.000479273      2.08557     -114.353 
1.69625e-05      1.86625     -114.368 
0.000978305     0.563028     -123.408 
0.000300297     0.582495     -124.509 
0.000205449      2.36163     -115.589 
0.00175282     0.176918     -137.291 
4.95843e-05      2.35733     -115.369 
3.36578e-05      1.87128     -113.962 
0.000153923      1.85540     -112.834 
0.000700919     0.557584     -122.550 
0.000219116      2.34883     -114.928 
0.000147474      2.34463     -114.707 
5.74268e-05      1.86462     -112.714 
0.00408773      1.61385     -112.593 
0.000988053      4.02573     -107.940 
0.000680839      4.02882     -108.075 
0.000580793      3.80643     -106.483 
0.000235593      4.02266     -107.804 
0.000177984      4.01961     -107.669 
0.00295620      1.22201     -126.682 
0.000459726      3.80928     -106.627 
0.000127904      4.01659     -107.533 
0.00150652      1.40089     -124.824 
8.26824e-05      4.01359     -107.397 
0.000120235      4.01061     -107.260 
0.00142408      1.61003     -112.264 
0.000153563      4.00766     -107.124 
0.00278969      3.81215     -106.771 
0.00814991     0.328938     -109.537 
0.000110444      4.00472     -106.987 
0.00232499      4.00181     -106.850 
0.000724031      1.60627     -111.934 
0.00824170     0.136015     -126.027 
0.00114059     0.184391     -139.399 
0.000400256      1.60256     -111.602 
0.000402469      1.39521     -124.487 
0.000291520     0.453431     -138.576 
3.79265e-05      1.38130     -124.380 
0.000143236      1.59891     -111.269 
3.55749e-05      1.37568     -124.037 
8.77550e-05     0.192094     -141.340 
0.000546299      1.39270     -125.059 
0.000125243      1.39846     -125.395 
0.000435936     0.101980     -101.310 
0.00152231     0.338378     -108.970 
0.00160400     0.104403     -106.699 
 0.0120386     0.107703     -111.801 
0.00348949     0.111803     -116.565 
0.000853427     0.347851     -108.435 
0.00356045      1.78025     -103.646 
0.00412009     0.343657     -98.3659 
5.09961e-05     0.345253     -100.008 
0.000825843     0.335410     -100.305 
0.00128923      1.80569     -108.736 
0.000862440      1.77792     -103.333 
0.000174944     0.668506     -124.641 
0.000475994      1.77564     -103.019 
0.000267471     0.676757     -124.160 
0.000283501      1.77341     -102.704 
0.000267218     0.342345     -96.7098 
0.000798924     0.662873     -123.930 
0.000172469     0.333766     -98.6157 
0.00480388     0.353553     -98.1301 
0.000121455     0.671193     -123.453 
0.00634853    0.0921954     -102.529 
0.000638231    0.0905539     -96.3402 
0.000270140    0.0900000     -90.0000 
0.00100812     0.657343     -123.207 
2.69280e-05      1.77124     -102.388 
0.000202047     0.156205     -129.806 
0.00315155     0.176918     -132.709 
0.000758883    0.0806225     -82.8750 
6.55593e-05    0.0824620     -75.9638 
 0.0125853    0.0799999     -90.0000 
0.000114708     0.651920     -122.471 
0.000365845     0.355106     -99.7276 
0.000819932      2.69920     -119.034 
0.000140660      2.95466     -113.962 
0.000381916      1.54434     -114.075 
0.000151746      3.30335     -118.970 
0.000202343      2.95061     -113.785 
0.00151760      1.54845     -114.413 
2.61394e-05      3.29460     -119.055 
0.00101257      3.56665     -118.649 
0.00861624    0.0806225     -97.1251 
0.000198609      2.94659     -113.607 
0.00122999      2.70407     -119.219 
0.00109545      3.30820     -119.122 
4.00893e-05      3.62824     -118.119 
0.000172944      2.94260     -113.429 
0.000104242      3.64177     -118.184 
0.000102794      2.93864     -113.250 
0.000112491      3.63706     -118.045 
0.000639220     0.205183     -133.025 
7.85563e-05      2.94002     -112.815 
0.000343573      3.57146     -118.790 
8.94743e-05      3.20952     -114.089 
0.000123652      2.93615     -112.635 
0.000223913      3.20545     -113.926 
0.000596868     0.212132     -135.000 
0.000377485      2.70836     -110.308 
0.000452799     0.378550     -102.200 
0.000366718      1.89362     -113.993 
0.000176496      2.93232     -112.455 
0.000325928      3.31308     -119.273 
0.000294831      3.20141     -113.763 
2.08979e-05      3.65059     -118.109 
0.000176835      1.55756     -114.261 
0.00154761      2.72753     -119.667 
9.70225e-05      2.92851     -112.274 
0.000262047      3.57628     -118.930 
0.000369687      2.93027     -111.838 
0.000181622      3.65531     -118.248 
4.21416e-05      2.68561     -118.951 
7.40759e-05      1.55348     -113.925 
7.78127e-06      2.66242     -118.490 
0.000309789     0.226274     -135.000 
0.000785292     0.240416     -135.000 
0.000950232      3.58113     -119.070 
0.000547574      2.70148     -109.911 
1.44497e-05      3.64651     -118.322 
0.000197474      3.66005     -118.386 
0.000120050      1.53235     -113.051 
0.000174654      1.52846     -112.706 
0.000455436     0.380789     -103.671 
0.000139971      2.70490     -110.110 
0.000509835      1.48661     -109.654 
8.84792e-05      1.88162     -113.159 
5.66384e-05      1.53629     -113.394 
0.000139893      1.49603     -109.525 
0.00113834     0.219317     -133.152 
0.000609912     0.233452     -133.264 
0.00204775     0.247588     -133.363 
3.85453e-05      2.93401     -112.019 
9.78303e-05      1.54029     -113.736 
0.000365239     0.383275     -105.124 
0.000197903      2.69809     -109.711 
0.00135072     0.254951     -131.820 
0.000429235     0.386005     -106.557 
6.41977e-05     0.198494     -130.914 
0.000355021     0.212603     -131.186 
0.000305645     0.240832     -131.634 
0.000257303     0.388973     -107.969 
3.76105e-05      2.73622     -119.563 
0.000432685      4.04260     -111.933 
0.000335326     0.164012     -127.569 
0.00182268     0.184391     -130.601 
0.00481961     0.101980      11.3100 
0.000220700      3.75985     -114.179 
0.000870842      3.76396     -114.318 
0.000325672      1.57201     -126.724 
0.000377127      4.03887     -111.801 
0.000640182     0.506063     -127.776 
8.45898e-05      1.45066     -105.186 
0.00607093     0.114017      15.2551 
0.000880882     0.380789     -113.199 
0.000408074      1.46031     -105.083 
0.000141789      1.57801     -127.015 
0.000740919     0.276586     -130.601 
6.23682e-05      1.59201     -127.086 
4.66033e-05     0.371618     -113.806 
7.80937e-05      1.56109     -115.416 
0.000546158    0.0948683     -108.435 
0.000129047      1.58600     -126.798 
4.30311e-05      4.03517     -111.670 
0.00363642     0.150000     -126.870 
0.000585986     0.111803      10.3049 
0.000141434     0.262488     -130.365 
0.000129527      1.55682     -115.084 
0.000593638      2.48670     -117.286 
0.000640672      2.50018     -117.385 
0.00159196     0.226716     -131.424 
0.00150740     0.624340     -121.908 
0.000221402     0.234307     -129.806 
0.000466006      2.74274     -111.607 
0.000206752     0.545619     -131.285 
0.000103533     0.288444     -123.690 
0.000165201     0.552268     -132.064 
0.000157823     0.126491      18.4350 
0.000570009     0.331210     -118.887 
0.000105205     0.559017     -132.825 
4.24332e-05      2.49130     -117.491 
2.96227e-05     0.558659     -134.275 
2.67194e-05     0.565685     -135.000 
0.000681168     0.546717     -129.806 
5.28822e-05     0.607454     -122.905 
0.000363834     0.615873     -122.400 
7.52309e-05      2.45978     -117.086 
0.000481239      2.47324     -117.187 
0.000453159      2.75204     -111.531 
8.58556e-05     0.553173     -130.601 
3.25949e-05      2.46435     -117.293 
3.01359e-05      2.47782     -117.392 
0.000738324     0.326496     -117.350 
0.000305855     0.170294     -130.236 
0.000643156     0.539073     -130.486 
0.00237187    0.0632455     -71.5651 
5.53557e-05    0.0670820     -63.4349 
0.00428408    0.0905539      6.34023 
0.00195621    0.0640312     -51.3402 
0.000604357     0.322025     -115.769 
3.97165e-05      2.46868     -116.980 
1.39138e-05      2.54031     -117.170 
2.54228e-05      2.48214     -117.081 
0.00132526     0.250000     -126.870 
0.000526557     0.117047      19.9831 
0.00106429     0.104403      16.6992 
0.00683175    0.0583095     -59.0362 
0.000246642    0.0799999      0.00000 
1.60071e-05    0.0632455     -18.4349 
0.000466968    0.0565685     -45.0000 
5.64148e-05     0.357351     -107.928 
0.00163085     0.360555     -109.440 
0.00133117     0.351141     -109.983 
0.000796683     0.415933     -117.181 
0.000797833     0.364005     -110.925 
0.000601294     0.326956     -113.429 
0.00322357    0.0806225      7.12506 
0.00208462     0.144222     -123.690 
0.000289638     0.411461     -115.942 
1.99985e-05     0.376961     -111.801 
-0.000530379      1.64757     -161.235 
0.000138731      5.65475      172.787 
-0.000815696      1.20000      180.000 
-0.000457145      1.64438     -161.565 
0.000581825      5.63618      172.661 
-0.000167558      3.19061     -4.67416 
-0.00130507      3.18148     -4.86833 
-0.000126107      1.63490     -161.454 
0.000626026      5.03083     -171.081 
-0.000506733      5.68000     -90.0000 
-0.000838550      1.24000      0.00000 
0.000114806      5.58198      172.175 
-0.000755711      3.12699     -7.53410 
0.000684612      2.68794     -55.3048 
0.000616223      6.94262     -115.236 
0.000613368      2.14979     -167.645 
0.000146023      3.71248     -7.58444 
-0.000595837      4.50884     -111.329 
-0.000319366      5.66593     -54.6269 
0.000308305      3.67267     -2.18461 
0.000365095      4.94975     -45.0000 
-0.000582773      1.21000      180.000 
0.000167251      5.57345      172.059 
0.00109023      5.88541     -116.870 
-0.000140644      6.01269     -91.7155 
0.000162267      5.66343      172.900 
-0.000167507      5.68001     -89.8991 
0.000341768      4.05627      50.5019 
-0.00106156      3.05806     -100.171 
0.000504003      2.22144      177.936 
0.000252464      5.02096     -171.063 
-0.000259225      1.95849     -128.157 
-0.000569056      3.45475     -15.4442 
0.000314241      4.79267     -155.467 
0.000720268      3.72239     -7.56413 
0.000310327      5.55503      171.928 
-0.000129616      1.64104     -133.519 
-0.000129909      6.00270     -91.7184 
-0.000422544      5.66015     -54.7094 
0.000912960      7.65823     -135.476 
-0.000349932      2.80104      136.447 
-0.000157603      3.08759      100.072 
0.000285735      5.64522      160.763 
-0.000580750      6.30658     -61.0778 
0.000449120      7.19447     -123.778 
0.000534780      5.78572      160.093 
-0.000314853      2.80829      136.587 
0.000283602      5.99554     -51.1611 
-6.16383e-05      1.22004    -0.469626 
-0.000259254      6.00301     -91.8138 
0.000257989      1.67872     -8.56452 
-0.000396755      4.85874     -70.1479 
-0.000354547      1.64794     -133.771 
0.000398250      4.40069      48.7773 
6.04012e-05      1.70018     -13.9545 
-8.79365e-05      5.68004     -89.7983 
-0.000601084      1.96469     -128.387 
0.000217909      4.37605     -93.0128 
-0.000617603      1.23004    -0.465808 
0.000456005      2.00691     -172.556 
0.000143779      6.94689     -115.311 
-5.85404e-05      3.08585      99.8897 
-2.94192e-05      1.49482      85.3955 
0.000159858      3.66268     -2.19057 
0.000113894      1.69047     -14.0362 
-0.000288541      2.47623     -109.093 
-0.000270762      1.49566      85.0137 
0.000751439      3.50326     -23.1986 
-0.000288780      4.98744     -82.9747 
-0.000847973      5.65438     -54.7921 
-0.000475351      3.09401      99.6754 
0.000276864      6.95593     -115.276 
0.000134036      2.66363     -74.7637 
0.000283489      5.00953     -171.158 
0.000149863      4.79683     -155.358 
0.000105894      1.68077     -14.1189 
-0.000382607      1.19921      163.530 
-5.30311e-05      5.68008     -89.6974 
0.000173546      5.54655      171.811 
0.000306525     0.854400     -32.5741 
0.000298057      5.67212      173.013 
0.000391675      2.39727     -51.2655 
0.000126176      2.66101     -74.9715 
-0.000710870      3.05984     -100.355 
-0.000347497      6.00333     -91.9092 
0.000126227      3.94417      21.8823 
0.000464620      5.87723     -48.0345 
-0.000228505      3.13691     -7.51015 
-0.000705896      3.46439     -15.4002 
0.000673013      1.94756     -50.8348 
0.000315598      2.69616     -55.4258 
2.53021e-05      1.81177     -2.53076 
9.55845e-05      5.75196     -65.8858 
7.42284e-05      1.67108     -14.2026 
-0.000191605      2.94160      171.594 
-0.00108921      5.64862     -54.8750 
-0.000274775      4.86215     -70.0370 
-4.95001e-05      6.49192     -102.002 
-0.000187573      1.49656      84.6323 
0.000143084      4.23435      161.266 
9.55618e-05      4.08271     -47.0844 
0.000200694      5.77631      160.059 
0.000162563      3.95345      21.8283 
0.000112181      4.37659     -93.1435 
9.31214e-05      1.66138     -14.2872 
0.000162965      4.22488      161.222 
0.000341329      4.26198      178.252 
4.66828e-05      2.66308     -75.6507 
0.000294125      5.65796      160.700 
-0.000278948      6.50170     -101.984 
8.91918e-05      7.20003     -123.845 
-9.11414e-05      4.43714     -83.6598 
-0.000217129      4.54280      137.141 
2.35291e-05      2.66558     -75.4424 
-0.000106444      4.98623     -83.0888 
-2.34963e-05      5.68022     -89.4956 
-0.000110838      1.62690     -133.506 
-9.17793e-05      6.39470     -67.0838 
-8.89614e-05      1.65705     -161.346 
4.56095e-05      2.23143      177.945 
4.57752e-05      2.70070     -72.1018 
0.000223784      2.29924     -75.9033 
-8.93685e-05      6.30175     -61.1573 
0.000291081      5.21035      179.340 
0.000689100      5.89434     -116.826 
0.000189103      4.08325     -47.2827 
0.000128839      6.96021     -115.350 
-2.25045e-05      3.01597      174.100 
0.000331977      4.96190     -58.2639 
6.57192e-05      2.70379     -71.9001 
-8.75769e-05      4.45543     -115.242 
-5.97742e-05     0.456070     -52.1250 
-4.36553e-05      3.03424     -126.152 
-0.000189887      1.77158     -157.778 
-0.000164059      2.93319      171.373 
0.000226585      5.74788     -65.9768 
0.000329567      3.67392      20.5560 
-2.20760e-05      5.68032     -89.3948 
-0.000144455      6.39081     -67.1663 
0.000144250      1.65170     -14.3728 
0.000219764      5.53809      171.694 
6.39650e-05      3.96274      21.7746 
-0.000148356      3.07522     -48.6914 
-4.35443e-05      5.67056      179.192 
-0.000196782      1.63380     -133.760 
-4.34805e-05      3.11333     -132.917 
-4.07797e-05      2.46678     -109.169 
-0.000186731      3.02491      174.308 
-0.000200710      1.48661      84.5962 
4.24267e-05      2.66062     -75.8593 
-6.36359e-05      1.34462      149.621 
0.000180320      2.38103      24.3046 
-2.13565e-05      5.13838      140.766 
-0.000379451      3.12014     -133.052 
-0.000217784      5.14471      140.679 
-0.000360474      3.46655     -107.285 
-0.000173416      5.30232     -50.8170 
-8.22631e-05      6.29299     -61.1134 
8.30292e-05      2.80845     -78.2900 
-2.11327e-05      5.66057      179.190 
-0.000121517      4.45971     -115.358 
-0.000156402      2.19738     -104.226 
-0.000231175      3.87825      55.0806 
0.000119568      4.27169      178.390 
-4.09991e-05      5.67043      179.293 
-9.09520e-05      4.86815     -70.1878 
-0.000273812      1.35326      149.835 
-9.45160e-05      4.43825     -83.5315 
-2.04971e-05      5.21372      144.603 
-4.01390e-05      5.69071     -89.0938 
-2.04090e-05      3.05413     -126.345 
9.73366e-05      4.35620     -53.6825 
0.000206887      5.00800     -171.271 
-0.000461706      4.87155     -70.0772 
-0.000168886      4.11519     -102.348 
-0.000311434      5.07986     -149.346 
-0.000299843      3.06863     -48.8316 
-0.000244951      6.20008     -84.3538 
-0.000150434      2.87433     -132.180 
0.000412606      2.66327     -11.4787 
7.79917e-05      6.96450     -115.424 
0.000134937      2.81050     -78.0903 
-0.000123063      3.10221      99.4623 
-7.74423e-05      5.20557      144.539 
1.99198e-05      7.20834     -123.800 
-0.000131214      6.00367     -92.0045 
-0.000166305      5.66043      179.291 
5.76150e-05      3.97203      21.7211 
-1.98040e-05      3.18636      98.6641 
-0.000131559      2.81256      177.555 
-0.000374614      1.76233     -157.655 
-0.000233875      3.14554     -7.30576 
0.000469201      5.22024      179.451 
-0.000399881      1.19641      163.989 
9.22752e-05      1.59862     -46.5208 
-0.000145885      3.17648      98.6913 
-7.56488e-05      6.28816     -61.1932 
0.000344428      3.68329      20.5014 
-9.26791e-05      1.71126      44.5265 
5.66890e-05      4.42540      157.549 
-0.000182596      4.51486     -150.255 
-5.56588e-05      1.22000      180.000 
-0.000207375      6.50378     -102.070 
-1.89813e-05      5.69088     -88.9931 
6.03775e-05      2.01683     -172.593 
-0.000157880      6.39231     -67.3663 
0.000187817      1.64924     -14.0362 
-1.87922e-05      5.55800     -53.1920 
-1.87184e-05      2.80794      136.299 
-0.000121558      5.14875     -86.6597 
8.94339e-05      4.02124      29.4975 
-0.000102565      4.33073     -158.887 
-5.45522e-05      4.46400     -115.474 
7.22260e-05      4.26169      178.386 
0.000171894      7.66536     -135.529 
1.85715e-05      7.21391     -123.866 
7.84878e-05      1.68861     -8.51399 
-5.45181e-05      1.95064     -128.339 
-5.40415e-05      5.19743      144.475 
8.84397e-05      6.96880     -115.499 
8.87469e-05      5.66740      160.734 
0.000187342      1.81177     -177.469 
9.83584e-05      2.19258      78.6901 
0.000153071      5.59361     -158.940 
-5.33101e-05      5.56202     -52.9653 
0.000140325      2.81258     -77.8910 
-3.58105e-05      4.54229      136.963 
0.000135616      4.07647     -47.3859 
-0.000262288      1.48758      84.2128 
-3.60259e-05      5.69106     -88.8925 
-0.000137879      5.13697      140.609 
-0.000172513      6.68809     -77.1274 
0.000150151      2.39015      24.2059 
0.000103677      4.34815     -53.6045 
-0.000228367      2.19986     -104.478 
-6.92225e-05      4.12787     -116.937 
0.000399258      4.41616      157.500 
-5.28152e-05      6.28335     -61.2731 
0.000134094      2.24984     -25.5400 
-1.77107e-05      5.81055     -89.2111 
3.36733e-05      6.87172     -124.985 
-0.000327018      5.80070     -89.1110 
1.75457e-05      5.77291      160.153 
-3.48540e-05      1.93041     -128.057 
-0.000195210      2.86810      52.6507 
0.000117556      5.04144     -64.7565 
-8.54407e-05      5.29601     -50.9009 
-0.000320642      2.80257      177.546 
0.000268195      6.29563     -130.039 
-0.000131245      2.89519     -132.340 
3.41185e-05      2.40508     -51.4146 
-3.40821e-05      5.18930      144.411 
-0.000509812      3.86432      55.1173 
-3.42370e-05      3.45110     -107.017 
0.000127538      5.78232      160.186 
-1.71692e-05      3.05722      3.93874 
-5.05524e-05      1.61276     -133.493 
0.000111077      2.60714      34.0558 
-0.000124180      4.11734     -102.484 
0.000155643      4.25199      178.248 
-0.000141686      4.49548      132.205 
-0.000359237      4.52355     -150.318 
-8.27762e-05      1.91024     -127.770 
-9.87520e-05      6.27855     -61.3531 
-0.000146418      3.06720      3.92591 
0.000232937      5.80246      148.173 
6.61187e-05      5.00650     -171.384 
0.000160780      2.29682     -76.1453 
-0.000278164      5.65043      179.290 
-1.68466e-05      1.67601     -161.565 
-0.000366268      1.09622     -125.720 
-7.94144e-05      4.46831     -115.590 
-6.48054e-05      6.43653     -68.7772 
0.000157877      2.81469     -77.6920 
6.43908e-05      6.97311     -115.573 
-3.28705e-05      5.18117      144.347 
9.38021e-05      5.67071      160.638 
-9.31122e-05      3.08274     -48.8141 
-0.000134378      1.71840      44.2927 
3.24600e-05      1.59176     -46.7820 
0.000164307      2.90264      117.271 
-4.74490e-05      3.16659      98.7187 
-0.000166469      3.35574     -105.734 
3.23686e-05      4.21541      161.178 
-0.000250116      3.12698     -133.186 
-1.63679e-05      2.81517      136.439 
-4.58624e-05      2.16363     -10.1154 
3.18153e-05      2.39102     -51.4525 
-8.56939e-05      4.13241     -117.061 
0.000243609      4.34222     -53.7107 
-7.73449e-05      7.25503     -127.833 
-0.000116472      5.99368     -92.0079 
-7.57775e-05      5.55202     -53.2746 
8.78800e-05      4.02995      29.4275 
-0.000122992      6.68587     -77.2109 
6.29924e-05      4.96407     -172.360 
-1.60133e-05      5.15105      140.593 
-8.84061e-05      1.61966     -133.749 
0.000545952      3.67980      20.3556 
-6.22765e-05      5.17305      144.282 
-0.000261408      1.89621     -127.716 
-0.000321605      5.14817     -86.7708 
0.000134044      5.04571     -64.6538 
-0.000242847      6.43084     -68.6618 
-4.60497e-05      6.27376     -61.4333 
-6.08211e-05      5.11077     -149.421 
6.02761e-05      4.06399      50.5916 
-0.000239478      4.09099     -1.26058 
4.55511e-05      3.77477      120.573 
4.55005e-05      1.44278     -43.8767 
-0.000175834     0.330151     -1.73570 
-6.03861e-05      5.12925      140.538 
0.000131084      7.67250     -135.581 
7.42943e-05      4.06971     -47.4896 
0.000112876      4.20595      161.134 
-0.000160399      6.50588     -102.156 
-7.42682e-05      3.11045      99.2503 
0.000171045      2.25887     -25.4306 
-1.54795e-05      6.28733     -61.3968 
0.000225363      4.95416     -172.344 
1.53470e-05      6.87746     -125.053 
9.57289e-05      5.58069     -158.999 
-0.000117760      3.06653      3.73951 
0.000173373      3.80191      115.554 
-5.98545e-05      2.90193     -132.486 
4.44918e-05      1.95389     -50.6074 
0.000129555      6.43175     -123.715 
-1.51505e-05      1.34826      150.202 
2.96970e-05      6.97743     -115.647 
0.000170314      6.50364     -156.628 
1.49543e-05      1.58493     -47.0454 
4.33210e-05      5.88211     -150.908 
0.000194175      6.34209     -164.452 
-8.57039e-05      5.16493      144.217 
-0.000374232      6.28255     -61.4769 
-2.87784e-05      6.38847     -67.4491 
-9.78813e-05      5.14333      140.522 
7.22774e-05      6.89238     -113.515 
-0.000111835      4.47264     -115.706 
8.04348e-05      2.39426      24.4242 
0.000228071      2.81684     -77.4933 
5.60855e-05      5.74381     -66.0679 
9.77894e-05      5.68014      160.672 
4.32351e-05      6.68444     -150.712 
4.23765e-05      2.38481     -51.6404 
4.30815e-05      1.59226     -47.2906 
-0.000224832      1.47763      84.1737 
-0.000173716      1.35695      150.412 
-0.000155847      7.24099     -127.819 
-7.95936e-05      2.18769     -104.290 
-0.000120923      4.61741     -44.9123 
-0.000135559      2.91606     -132.498 
-0.000529923      5.80055     -89.2098 
-0.000687468      6.69562     -77.2299 
0.000254622      2.61543      33.9331 
6.40512e-05      1.65895     -13.9525 
-0.000286956      2.19018     -104.544 
0.000177927      3.80623      115.690 
0.000174119      5.85969     -51.0959 
2.79744e-05      5.56799     -116.105 
-0.000250738      1.74929     -157.834 
4.16973e-05      1.95533     -51.0199 
7.85237e-05      4.05765      50.7007 
-0.000277763      3.05631     -99.9863 
8.10578e-05      5.77894      160.279 
0.000119444      5.51976      171.562 
-1.40869e-05      1.23000      180.000 
-2.79589e-05      5.55601     -53.0476 
-2.80755e-05      3.33486      93.0941 
-0.000334651      3.37083     -106.015 
0.000483588      5.80774      148.089 
8.02704e-05      4.25169      178.383 
-2.72961e-05      5.13308     -149.438 
1.39876e-05      6.98176     -115.721 
-6.84451e-05      3.07651      3.72736 
0.000351667      3.69265      20.4471 
6.75362e-05      6.90155     -113.482 
5.31627e-05      1.45000     -43.6028 
9.06843e-05      6.67572     -150.670 
-0.000143522      6.90159     -120.280 
0.000115699      1.58550     -47.5561 
-2.71271e-05      5.14286      144.177 
-0.000201603      3.33434      92.9225 
2.67342e-05      3.77832      120.366 
0.000232817      5.05000     -64.5513 
-0.000112730      3.10058      99.2800 
-0.000104589      5.55000     -53.1301 
-4.98080e-05      2.72694      106.840 
1.35736e-05      6.97275     -115.757 
7.51525e-05      4.19649      161.090 
-2.66034e-05      5.31989     -148.999 
-0.000166244      6.50800     -102.242 
7.62280e-05      5.89886     -116.913 
1.35151e-05      4.41390      48.5821 
0.000171354      4.55739     -57.1817 
-8.65865e-05      6.60115      150.406 
1.34404e-05      7.67965     -135.633 
0.000120130      5.87725     -150.993 
0.000520894      6.50761     -156.547 
0.000243079      6.42343     -123.764 
2.60845e-05     0.862844     -32.2165 
8.95797e-05      7.69379     -135.632 
7.46705e-05      1.96163     -50.7928 
-0.000161779      3.07587      3.54148 
2.54709e-05      5.65350      172.888 
3.85093e-05      2.37861     -51.8292 
-0.000205042      5.15682      144.152 
-2.60436e-05      4.53224     -150.381 
1.30732e-05      4.42052      48.4849 
-7.50032e-05      5.12153      140.467 
-0.000167349      4.47699     -115.821 
3.80113e-05      6.97711     -115.831 
1.29956e-05      5.68346      160.577 
4.97292e-05      4.66315      32.5654 
-1.29462e-05      5.14169     -149.495 
-8.38467e-05      5.99334     -91.9123 
0.000259278      4.78987      46.9458 
0.000123599      2.89807      117.096 
-5.06061e-05      1.90234     -127.954 
0.000144333      3.82460      169.454 
8.66154e-05      2.26791     -25.3221 
7.44636e-05      6.89757     -113.406 
0.000125720      5.73875     -65.9361 
-0.000269613      6.42518     -68.5463 
-0.000251899      3.07093     -42.8887 
5.93137e-05      3.49803     -23.4137 
-0.000217099      1.10436     -125.417 
1.28128e-05      1.82176     -177.483 
-0.000299874      4.52731     -150.491 
1.27472e-05      5.78835      160.313 
-1.27527e-05      2.94308      171.402 
-0.000244580      3.11284     -133.178 
-8.11248e-05      1.64073     -134.012 
0.000132505      6.33246     -164.427 
0.000220281      4.94425     -172.329 
0.000101213      3.77327      120.235 
-0.000454695      6.91023     -120.239 
0.000349719      5.41909      156.510 
3.68640e-05      6.53894     -155.708 
5.00156e-05      5.69289      160.610 
1.25977e-05      5.02535     -41.0465 
5.93439e-05      4.03866      29.3578 
-1.25762e-05      4.12711     -102.454 
-1.25567e-05      7.10680     -132.377 
-2.44237e-05      2.15205     -9.90002 
-2.46864e-05      5.31132     -148.944 
8.19526e-05      1.45726     -43.3317 
-1.24201e-05      4.62450     -44.8248 
4.83165e-05      5.77557      160.373 
-9.26046e-05      2.92282     -132.643 
-0.000200527      4.08123     -1.40403 
7.92886e-05      2.29445     -76.3877 
3.50129e-05     0.857555     -31.6513 
1.23511e-05      5.56343     -116.243 
-1.23515e-05      3.48208     -107.550 
-6.87863e-05      2.95149      171.623 
-1.22871e-05      3.10461     -119.951 
-7.09686e-05      5.54401     -53.2128 
-9.40539e-05      4.34246     -63.6120 
0.000176134      4.34010     -53.5262 
3.62504e-05      5.01781     -41.1215 
-1.22081e-05      3.06811     -126.384 
0.000119984      7.05013     -150.235 
1.21608e-05      1.68024     -8.90171 
0.000147217      7.70094     -135.684 
-0.000135386      3.09963     -119.791 
9.15453e-05      4.59296      153.770 
-1.20664e-05      5.16400     -149.512 
-3.58170e-05      1.51855     -167.062 
-4.31194e-05      6.89656     -120.209 
-2.38174e-05      5.11382      140.395 
0.000190570      6.65950     -117.258 
5.72675e-05      2.37245     -52.0191 
-0.000136407      6.51012     -102.328 
-3.49565e-05      5.29759     -148.981 
0.000131881      5.52819      171.679 
4.56423e-05      6.66701     -150.628 
0.000155212      2.82661     -77.5372 
0.000262474      4.98254     -154.309 
-3.39278e-05      4.12496     -102.318 
1.18334e-05      6.98147     -115.904 
-1.18046e-05      5.54008     -53.4404 
-1.17638e-05      6.27778     -61.5571 
-0.000362939      4.85523     -149.421 
6.85047e-05      6.90675     -113.373 
0.000370885      6.17548      166.706 
-0.000120773      1.46670      84.5226 
0.000109740      2.27220     -25.5501 
2.29510e-05      5.88994     -116.957 
5.60046e-05      1.57877     -47.8240 
3.36323e-05      6.54306     -155.629 
-1.15768e-05      6.21003     -84.3629 
-2.97953e-05      1.25004     0.458359 
-2.29073e-05      3.08585      3.53001 
-0.000103288      1.96084      137.687 
5.51266e-05      5.01028     -41.1967 
1.14747e-05      4.41235      157.620 
-0.000125750      5.13561      140.452 
-3.00807e-05      3.15420     -7.10249 
-0.000190817      1.50881     -166.977 
-0.000106904      6.60610      150.330 
2.22923e-05      5.78499      160.406 
-0.000127490      5.14872      144.087 
3.26609e-05      4.06539      50.7899 
4.25217e-05      4.40310      157.570 
-0.000124444      3.08526      3.34465 
-0.000129356      3.00468      21.2703 
0.000301802      6.33515     -164.340 
3.24101e-05      4.65473      32.6317 
-5.39333e-05      1.96825      137.883 
-0.00102007      5.05887      37.9346 
-2.24074e-05      3.32435      92.9313 
-0.000136656      4.35143     -63.6705 
-4.41251e-05      5.53802     -53.2956 
1.12110e-05      5.70565      160.549 
2.99430e-05      4.96271     -162.770 
-0.000147285      1.88218     -127.661 
2.22171e-05      3.81662      169.279 
2.15843e-05      2.18083      78.8962 
9.58255e-05      3.81093      115.489 
-8.91229e-05      3.09071      99.3099 
-7.33819e-05      3.32385      92.7591 
4.07748e-05      5.90339     -116.999 
-1.09713e-05      3.07405     -126.534 
0.000125435      6.90279     -113.297 
4.08324e-05      2.66130     -11.2677 
-7.40135e-05      3.96162     -78.3497 
0.000228780      3.82645      169.307 
8.25047e-05      6.86997     -64.2928 
-0.000157957      1.07378      85.1920 
6.24646e-05      2.36631     -52.2100 
6.23092e-05      5.05431     -64.4489 
3.16972e-05      5.77222      160.466 
-0.000103577      5.53205     -53.3787 
-0.000136979      4.48135     -115.936 
2.06555e-05      5.56777     -159.059 
-0.000213641      3.95182     -78.3204 
-9.24569e-05      6.51227     -102.414 
0.000131315      3.99336      23.9334 
0.000264934      1.57953     -48.3363 
2.11609e-05      3.83419      16.8281 
7.21137e-05      6.96335     -108.331 
-0.000149489      3.49894      85.9027 
3.12656e-05      1.47139     -43.3477 
0.000387643      4.77574      46.9515 
3.09318e-05      5.88600     -151.040 
5.50628e-05      3.48885     -23.4789 
6.09197e-05      5.23130     -114.507 
3.08521e-05      1.65656     -13.6168 
0.000129070      4.93434     -172.313 
1.05372e-05      3.93954      113.962 
2.99556e-05      4.04358      29.4813 
-3.07214e-05      2.28615      67.3609 
-2.06737e-05      4.12284     -102.182 
-0.000191448      4.87756     -70.2276 
1.04484e-05      6.55217     -155.665 
6.96440e-05      5.00276     -41.2721 
7.03065e-05      3.93041      114.022 
0.000141495      2.29212     -76.6307 
6.02916e-05      3.55647      15.3258 
8.54767e-05      4.58399      153.714 
1.03784e-05      4.80580     -159.793 
2.73089e-05      4.95316     -162.736 
-1.03505e-05      2.95995      171.843 
0.000114221      7.70810     -135.736 
-0.000137372      3.20663      26.0856 
-6.88921e-05      3.09467     -119.630 
-1.02809e-05      5.28387     -149.018 
-7.75600e-05     0.815414     -123.495 
1.02430e-05      4.55443     -57.0078 
0.000106579      2.82446     -77.7352 
-1.02036e-05      4.22811     -161.094 
0.000157443      4.81518     -159.834 
6.85076e-05      2.27653     -25.7771 
1.01644e-05      5.63491      172.761 
-3.89718e-05      1.44309      157.166 
-1.01368e-05      2.93695     -132.654 
-4.89939e-05      3.29207     -47.8317 
-0.000123008      6.55776     -51.1901 
3.87729e-05      5.75003      160.494 
-0.000176337      3.09524      3.33385 
2.94845e-05      3.76825      120.103 
5.83206e-05      5.73468     -66.0274 
-1.00537e-05      4.23757     -161.137 
-1.00544e-05      3.00816      173.702 
-0.000117100      6.59741      150.287 
-1.00340e-05      3.09401     -126.722 
9.62275e-05      3.81996      115.425 
-3.91132e-05      3.05459     -99.8015 
-7.46382e-05      1.09859     -124.992 
-7.63200e-05      6.27207     -135.194 
-9.99719e-06      1.74003     -157.709 
6.45660e-05      5.10170     -174.714 
0.000291439      6.91197     -113.264 
2.94086e-05      7.03649     -150.265 
-0.000100214      3.37360     -106.179 
1.93170e-05      2.19456      78.4341 
-3.83779e-05      3.01763      21.3783 
3.89204e-05      4.33207     -53.4475 
-0.000139007      4.07123     -1.40748 
1.94953e-05      4.15235      165.495 
-1.96217e-05      4.24703     -161.181 
-2.90147e-05      2.91812      143.641 
-0.000265445      6.90520     -120.167 
0.000209258      6.73011     -155.415 
9.85559e-06      2.38516      24.5235 
4.69716e-05      4.58843      153.602 
9.84758e-06      5.86748     -51.1572 
-9.84288e-06      5.27873     -149.111 
1.93828e-05      1.66628     -13.5359 
-2.87916e-05      1.73626     -158.015 
-7.44940e-05      5.52609     -53.4619 
-6.63235e-05      6.51442     -102.500 
-1.92354e-05      3.00048      173.301 
4.76531e-05      6.97915     -108.461 
-5.68785e-05      6.42721     -68.7449 
1.89117e-05      1.48553     -43.3634 
-9.69609e-06      2.86016      52.5291 
1.85613e-05      4.15030     -89.3097 
9.61820e-05      2.17745      32.8143 
-2.86815e-05      4.35587     -63.5526 
2.81081e-05      5.88116     -151.125 
7.70812e-05      6.89884     -113.220 
-6.45783e-05      3.11970     -133.311 
2.80975e-05      5.05863     -64.3467 
-1.91403e-05      1.46578      84.9117 
9.62860e-06      6.67192     -150.553 
9.62039e-06      4.64631      32.6982 
-0.000116684      1.18680      163.856 
2.77880e-05      2.36019     -52.4018 
-1.88241e-05      2.29002      67.1299 
3.66712e-05      3.77690      120.027 
-0.000257674      5.81042     -89.3097 
2.81684e-05      6.95020     -66.4225 
-6.06704e-05      3.19978     -4.48111 
4.64592e-05      2.60987      33.7510 
7.12767e-05      5.22220     -114.553 
-2.82833e-05      4.25650     -161.225 
8.31829e-05      7.02781     -150.225 
-7.77402e-05      5.15761     -86.8880 
-9.50839e-06      6.31064      156.563 
2.83417e-05      5.81303      148.005 
3.70931e-05      3.92537      114.214 
7.20104e-05      4.13552      165.292 
-0.000184184      2.08969     -129.174 
0.000203715      4.25987      15.2433 
-9.44034e-06      3.11400     -126.907 
0.000202555      3.85623      16.8843 
9.42761e-06      2.89353      116.919 
5.44340e-05     0.820975     -2.79270 
0.000162646      4.99525     -41.3478 
-7.00052e-05      3.85040      55.1543 
-3.69988e-05      6.30546      156.443 
2.77377e-05      4.32612     -53.5539 
-9.36308e-06      1.45582      84.8768 
5.47152e-05      4.93569     -172.198 
1.85671e-05      7.36610     -117.226 
9.33938e-06      6.87466     -64.4041 
-9.33254e-06      2.85408      52.6884 
0.000268219      6.50243     -156.431 
3.49196e-05      3.56612      15.2833 
1.84571e-05      1.66397     -13.2011 
1.84377e-05      2.28554     -25.6681 
-4.55111e-05      3.10337     -119.539 
3.45168e-05      5.20047      179.229 
-3.47175e-05      4.36039     -63.7288 
6.26538e-05      5.40934     -65.1879 
-3.59775e-05      5.24619     -149.280 
7.17446e-05      5.82151      148.057 
2.74091e-05      5.62626      172.648 
-1.83164e-05      3.05290     -99.6166 
-5.42373e-05      3.21562      26.0073 
0.000293172      4.37768      43.9819 
-2.72332e-05      2.91602      143.366 
1.83914e-05      7.36371     -146.073 
-6.09563e-05      3.00167      173.112 
-9.22435e-06      4.26597     -161.268 
-9.22164e-06      3.31340      92.5947 
0.000151161      6.97599     -108.383 
2.69745e-05      4.00250      23.8753 
9.20464e-06      2.90245      116.830 
7.77168e-05      6.64603     -117.220 
0.000154959      6.32552     -164.316 
0.000173366      3.82472      115.225 
-5.12639e-05      1.44848      157.684 
1.81395e-05      5.73726      160.554 
-0.000886520      5.06676      37.8651 
-3.59842e-05      6.42153     -68.6294 
-8.70790e-05      3.49967      85.7394 
-8.87402e-05      3.29948     -47.9483 
-2.68140e-05      3.08935      10.2551 
-1.80978e-05      4.27544     -161.311 
-4.44140e-05      6.51659     -102.586 
-2.64132e-05      6.37854     -92.9656 
0.000358555      6.18521      166.728 
-6.00400e-05      4.94491     -121.858 
5.15172e-05      2.61819      33.6294 
1.78510e-05      7.37068     -117.295 
-6.17500e-05      6.29629      156.407 
0.000143120      7.37201     -146.116 
-9.03468e-06      3.02695      21.3093 
1.75249e-05      5.86121     -51.2333 
6.11487e-05      2.82236     -77.9336 
4.37488e-05      2.89795      116.653 
6.01361e-05      2.28989     -25.8936 
-8.99141e-06      6.54489     -54.0756 
-7.15191e-05     0.448219     -51.3402 
0.000333384      5.39557      41.9951 
-3.49141e-05      3.82719     -21.9404 
1.76133e-05      6.87034     -64.4793 
-2.61098e-05      2.84614      52.5664 
-1.77315e-05     0.820975     -124.077 
-4.33790e-05      6.27912     -135.129 
-0.00113865      3.61022      90.6348 
-9.28896e-05      2.81711     -96.3177 
-1.76957e-05      4.28492     -161.354 
5.23341e-05      3.67042      20.4099 
-9.98623e-05      6.42359     -68.8280 
2.55556e-05      4.39005      157.641 
1.76303e-05      1.49241     -43.6425 
8.88186e-06      3.23830      121.874 
4.33013e-05      3.91625      114.274 
-2.61117e-05      5.64057      179.187 
-6.51278e-05      4.36483     -63.6111 
-8.87485e-06      3.03059      21.4854 
-8.86572e-06      1.74554     -158.138 
1.76451e-05      3.81849      169.131 
3.51013e-05      7.01913     -150.184 
0.000179469      4.92443     -172.298 
5.13271e-05      3.48662     -82.9157 
4.30110e-05      6.94621     -66.4981 
1.75099e-05      4.32019     -53.6606 
8.83175e-06      8.14104     -138.635 
1.74689e-05      5.61763      172.533 
0.000153486      5.71508      160.582 
-0.000123847      3.22002      26.1672 
-3.43741e-05      3.09845     -119.378 
4.20267e-05      5.06296     -64.2447 
0.000146813      4.97821     -154.413 
-0.000108305      3.95386     -78.1785 
0.000164603      8.15515     -138.629 
0.000155955      7.71526     -135.788 
-8.74130e-06      5.48689     -57.3526 
5.00536e-05      4.47021      150.223 
0.000146586      3.82832      169.160 
-3.41620e-05      3.03990      21.4164 
-2.51486e-05      4.12074     -102.046 
-7.44635e-05     0.829277     -123.690 
8.65727e-06      2.35410     -52.5946 
-2.56789e-05      4.29439     -161.396 
6.10828e-05      3.57841      15.3955 
-3.37210e-05      3.10098      10.4040 
-3.34617e-05      2.92200      143.209 
-4.20233e-05      1.50659     -167.347 
-4.91051e-05      3.10556     -133.304 
-8.62433e-06      4.06149     -1.55197 
-1.72087e-05      6.52635     -102.567 
-0.000107083      6.29114      156.287 
5.91361e-05      7.00548     -150.215 
1.70550e-05      3.77191      119.896 
2.50029e-05      3.24154      121.631 
-8.56649e-06      1.45496      85.2691 
-1.69831e-05      5.47848     -57.2962 
2.53730e-05      1.49933     -43.9191 
3.36220e-05      3.29424      111.737 
-5.84207e-05      4.06123     -1.41094 
3.24942e-05     0.820549     -2.09525 
2.53525e-05      5.59912      172.405 
0.000580919      4.26251      15.3730 
-8.51026e-06      6.51878     -102.672 
0.000224917      5.40448     -65.0472 
8.51063e-06      7.50706     -118.135 
-8.99037e-05      4.69334      40.8529 
5.81620e-05      3.70995     -30.0897 
-5.00218e-05      3.97817     -18.6171 
-4.13786e-05      5.52014     -53.5453 
0.000594948      6.72596     -155.493 
8.49039e-06      3.94275     -149.011 
0.000868930      6.92235     -71.9053 
0.000168493      4.82802     -159.763 
-4.88151e-05      6.54597     -132.709 
3.29289e-05      4.31427     -53.7676 
-6.60470e-05      6.52854     -102.653 
4.14296e-05      4.11874      165.087 
5.58816e-05      6.42900     -123.838 
6.55640e-05      4.15269     -69.1210 
2.47422e-05      6.86604     -64.5546 
0.000695563      6.93185     -71.9310 
3.26730e-05      7.51178     -118.203 
-0.000132043      6.37803     -92.8759 
8.35408e-06      3.90713      114.335 
1.65225e-05      6.03686      144.098 
3.27250e-05      2.82028     -78.1323 
-3.26948e-05      3.09356     -119.217 
2.45710e-05      2.36205     -52.7420 
-1.64722e-05      6.29134     -61.5204 
-3.23951e-05      4.30387     -161.439 
3.26840e-05      5.59054      172.290 
-0.000655969      6.16118     -48.1579 
-4.76832e-05      3.63919      82.7383 
-4.05448e-05      3.05287      21.5226 
6.44499e-05      1.51347     -43.9292 
8.27353e-06      3.83377      115.161 
-2.45484e-05      3.10522      3.32312 
1.60813e-05      5.81623      148.141 
-8.26748e-06      4.53601     -150.553 
0.000106509      3.91127      114.468 
8.25411e-06      4.14030     -89.3081 
3.24523e-05      5.72752      144.451 
8.24319e-06      3.99212      35.0038 
7.98385e-05      6.99681     -150.174 
5.50080e-05      3.78114      138.002 
1.60605e-05      2.89348      116.476 
6.45114e-05      3.82953      115.026 
3.20332e-05      4.39332      29.5993 
-8.15748e-06      3.81792     -21.9965 
-1.62116e-05      6.58873      150.244 
-8.50334e-05      3.09919      10.2222 
1.61102e-05      3.47794     -82.7320 
8.81649e-05      4.92578     -172.182 
-2.41690e-05      3.96869     -18.6632 
2.40124e-05      3.29055      111.575 
3.89018e-05      4.00605      35.0389 
-3.99628e-05      4.10888      3.76770 
0.000143839      3.70494     -29.9559 
3.95029e-05      4.38625      157.762 
0.000209972      6.32823     -164.229 
-8.06201e-06      2.83212      52.6041 
-1.60301e-05      6.32020     -62.3808 
-6.72318e-05      5.15816     -86.7770 
-8.03423e-06      1.44499      85.2364 
1.58990e-05      5.06732     -64.1429 
-5.50354e-05      6.53074     -102.738 
2.38586e-05      6.04021     -170.085 
-8.02080e-06      3.04647     -98.8749 
8.02304e-06      3.95648     -148.962 
8.02034e-06      5.88766      174.444 
2.37413e-05      4.11167      164.916 
7.99018e-06      2.18277      78.6386 
-5.46444e-05      6.59369      150.169 
3.85816e-05      6.94223     -66.5738 
3.84386e-05      4.98774     -41.4237 
-8.12388e-05      6.39351      158.049 
-1.58245e-05      5.51421     -53.6289 
-7.03581e-05      3.96244     -18.8465 
0.000173797      5.89761      174.454 
6.23535e-05      2.94211     -82.9716 
5.27605e-05      5.73566      144.509 
2.19876e-05      6.86651     -64.7411 
-5.32459e-05      1.49683     -167.264 
3.87764e-05      4.30620     -53.6889 
1.58106e-05      3.08877     -83.6803 
-2.33925e-05      3.04495     -98.6889 
-2.33213e-05      2.92002      142.934 
7.91900e-06      3.98931      23.8021 
1.58009e-05      4.14913     -69.2500 
-3.86660e-05      1.45399      158.199 
7.90596e-06      4.30686      153.970 
-7.91045e-06      5.63043      179.288 
6.25083e-05      3.82531      114.890 
-1.55474e-05      3.10466      3.13888 
2.27297e-05      2.28983     -76.8741 
7.88383e-06      2.29889     -25.7848 
-1.56448e-05      3.06217      21.4540 
-7.59217e-05      6.31599     -62.2584 
-0.000330624      4.11886      3.75856 
-7.86766e-06      2.81603     -96.1155 
-5.22403e-05      3.20899     -4.28915 
-7.84217e-06      3.07509     -118.982 
-6.02968e-05      6.78684     -104.855 
-0.000105035      6.27688      156.130 
-7.83899e-06      3.06584      21.6279 
-3.10094e-05      2.50545     -99.6503 
-0.000109727      6.41789     -68.7125 
-0.000242227      6.70317     -77.3321 
4.63971e-05      1.52043     -44.2006 
-8.29773e-05     0.843149     -123.879 
2.23640e-05      5.22637     -114.653 
-1.53938e-05      1.43422      85.6013 
0.000119641      4.13978     -69.2010 
-7.56758e-05      4.70744      40.8653 
2.31680e-05      3.28495      111.801 
-7.79067e-06      3.96365     -78.2081 
0.000150753      6.05006     -170.102 
-4.58253e-05      3.07514      21.5592 
-3.03265e-05      5.12790      140.380 
0.000125983      7.70112     -135.789 
1.54776e-05      6.63256     -117.183 
1.53130e-05      2.35601     -52.9355 
5.24211e-05      4.31584      154.029 
0.000523149      6.89490     -113.144 
3.80173e-05      3.07883     -83.6598 
0.000221555      8.16176     -138.576 
1.54854e-05      4.10201      164.880 
-0.000354414      6.39906      158.165 
0.000303786      4.40696      29.6481 
0.000110518      4.78257      46.8640 
-0.000110325      5.26249     -70.8076 
-4.34367e-05      6.55275     -132.774 
-7.73711e-06      3.07924      99.1564 
-9.63257e-05      3.21104      26.2459 
7.72111e-06      6.98813     -150.133 
-2.28296e-05      5.50828     -53.7126 
-1.53378e-05      6.48726      146.506 
2.26183e-05      3.48786     -82.7527 
3.80958e-05      6.98316     -150.204 
3.05702e-05      3.82111      114.754 
2.23416e-05      5.41392      156.371 
-1.50859e-05     0.398497      107.526 
0.000143386      3.86580      16.8412 
3.67983e-05      6.86175     -64.6300 
4.50849e-05      4.09498      164.708 
-2.25624e-05      3.07026     -118.819 
1.51563e-05      7.51651     -118.270 
-1.48841e-05      4.31019     -161.607 
7.65114e-06      6.02876      144.043 
-0.000111940      3.95297     -18.8933 
1.50213e-05      4.13030     -89.3064 
-2.23883e-05      5.75216     -59.3779 
-5.96332e-05      6.53295     -102.824 
0.000230699      3.82039      168.984 
1.51157e-05      5.06270     -63.9917 
-2.24572e-05      2.82418      52.4809 
-1.51187e-05      2.82492     -95.8922 
7.25277e-05      3.60057     -34.7052 
7.61397e-06      7.04194     -146.175 
2.25322e-05      4.38248      157.883 
-7.26184e-05      2.50715     -99.8756 
3.76084e-05      1.52761     -43.9391 
-2.23303e-05      1.46328      158.344 
6.54463e-05      4.30029     -53.7963 
2.26730e-05      3.83020      114.692 
7.57519e-06      2.94090     -83.1650 
-4.41543e-05      3.97291      147.750 
-5.74387e-05      5.53531     -147.918 
5.14959e-05      3.28125      111.639 
4.43251e-05      3.51484      69.8637 
7.30960e-05      7.02807     -146.197 
1.50288e-05      5.72451      160.615 
0.000507349      5.38814      42.0662 
-1.49626e-05      3.04345     -98.5028 
5.91577e-05      2.93218     -82.9477 
3.57985e-05      2.62652      33.5086 
0.000378799      3.78857      138.103 
-9.02301e-05      6.31181     -62.1358 
-5.15463e-05      6.47892      146.457 
-4.34186e-05      4.13697     -117.184 
0.000211190      6.97448     -150.163 
-4.41444e-05      6.58502      150.126 
1.48378e-05      6.63714     -117.260 
5.93739e-05      3.82603      114.555 
-6.47733e-05      2.08195     -129.347 
-2.19613e-05      3.64047      82.5822 
-5.13587e-05      3.08812      21.6636 
0.000515944      6.19494      166.749 
-1.48593e-05      5.36151      141.056 
7.43433e-06      6.93826     -66.6496 
-4.69822e-05      3.10413      2.95458 
9.36724e-05      1.53457     -44.2079 
7.39652e-06      5.11165     -174.724 
-3.63585e-05      5.66255     -54.8505 
2.87684e-05      5.70232      160.644 
3.62492e-05      4.97390     -154.517 
-7.09183e-05      1.17720      163.720 
-5.04309e-05     0.711126      86.7755 
5.72559e-05      6.92908     -66.6168 
-1.46184e-05      5.50237     -53.7965 
0.000168966      4.79671      46.8585 
7.37444e-06      7.52126     -118.337 
7.37095e-06      5.74381      144.567 
-1.43221e-05      4.93642     -121.919 
1.46347e-05      4.36945      157.955 
5.73474e-05      6.13306      176.260 
-7.06594e-05      3.10904      10.1895 
0.000118015      6.75747     -106.772 
3.63268e-05      3.82188      114.419 
-2.80987e-05      2.82392     -95.6904 
-2.16061e-05      5.36780      140.973 
7.31956e-06      4.47890      150.287 
-0.000174381      4.21797     -14.6952 
3.54790e-05      4.99437     -41.5097 
-7.30264e-06      1.97568      138.077 
2.15774e-05      2.35000     -53.1301 
9.70297e-05      4.08799      164.536 
-4.05703e-05      4.20739     -12.3516 
4.16803e-05      3.66456      20.6109 
-7.27958e-06      3.04199     -98.3166 
-4.27988e-05      7.22181     -121.005 
2.85605e-05      3.07774     -83.8448 
-0.000567021      3.61035      90.7935 
2.11207e-05      2.32467      147.472 
7.25260e-06      3.24680      121.781 
-7.72662e-05     0.851469     -123.503 
-2.15335e-05      1.45962      158.709 
5.62281e-05      4.36571      158.077 
-7.23173e-06      2.91810      142.659 
-2.15042e-05      4.69988      40.9451 
-6.32727e-05      3.94351     -18.9404 
0.000306917      7.72243     -135.839 
-2.13643e-05      6.53517     -102.909 
7.02401e-05      2.93097     -83.1417 
5.58272e-05      6.62367     -117.223 
-0.000158376      6.78941     -104.937 
7.20336e-06      6.02656      143.910 
-1.42350e-05      1.42352      85.9717 
2.85767e-05      3.81776      114.282 
-7.18669e-06      4.84663     -149.361 
-7.17552e-06      3.06545     -118.655 
7.16699e-06      7.52601     -118.404 
-8.37489e-05      3.09742      21.5953 
2.78082e-05      5.06709     -63.8901 
0.000104508      3.79796      71.8990 
-7.15174e-06      6.47059      146.408 
-3.49365e-05      3.97141     -78.3788 
-1.41618e-05      5.48840     -53.8191 
8.16646e-05      4.31147      154.148 
-1.42147e-05      6.47340      146.531 
1.41181e-05      6.55616     -153.357 
7.11236e-06      4.95020     -162.846 
2.81658e-05      6.70732     -74.0781 
4.85021e-05      4.74065      42.9485 
7.10529e-06      5.19062      179.117 
2.10270e-05      5.33975      153.291 
-1.40998e-05      1.48708     -167.179 
4.88775e-05      5.90756      174.463 
-7.08128e-06      3.04056     -98.1301 
4.11471e-05      3.51829      69.7108 
-7.07859e-06      6.37754     -92.7861 
-9.61457e-05      4.71399      40.9572 
8.11961e-05      4.13624     -69.3305 
2.11366e-05      3.81366      114.146 
-4.13594e-05      5.65680     -54.9333 
4.83198e-05      3.27196      111.704 
-5.55899e-05      6.46506      146.482 
-4.79300e-05      6.27179      156.010 
2.10817e-05      7.70829     -135.841 
-0.000125559      1.46895      158.850 
1.38797e-05      2.89360      116.034 
-7.87930e-05      5.74356     -59.3271 
2.09360e-05      4.49135      150.524 
-6.78714e-05      3.07098      99.3703 
0.000287557      3.75345     -7.65517 
-6.86307e-05      7.64412     -142.815 
0.000115819      7.01419     -146.219 
6.77400e-05      5.56354      172.045 
2.09460e-05      3.80958      114.008 
-1.40067e-05      3.19766      26.1644 
-2.73762e-05      5.36929      141.124 
-4.16540e-05      4.00704      63.3071 
-7.01388e-06      3.06067     -118.491 
1.39043e-05      7.53077     -118.471 
0.000115218      4.83149     -159.652 
7.01137e-06      1.58619     -48.0665 
0.000279423      8.16838     -138.524 
-1.37384e-05      4.84154     -149.462 
-6.99884e-06      6.46743     -92.7474 
0.000113365      4.91587     -172.167 
0.000119189      6.31861     -164.204 
6.20242e-05      1.54175     -43.9488 
-0.000693668      6.70099     -77.4155 
2.76396e-05      4.29439     -53.9040 
-4.77125e-05      3.81418     -21.8572 
4.11232e-05      3.91542      114.601 
2.72444e-05      2.34401     -53.3257 
-3.44606e-05      5.48250     -53.9035 
-0.000153962      3.70818      64.6097 
5.43926e-05      6.85747     -64.7055 
4.72535e-05      3.69628     -30.0333 
-2.72923e-05      3.96445      147.673 
6.75331e-05      3.80552      113.871 
-7.97612e-05     0.711758      85.9717 
-0.000182577      7.20809     -120.977 
-4.04781e-05      4.36936     -63.7868 
6.11283e-05      6.13372      176.167 
-3.38979e-05      3.77631     -104.257 
4.79902e-05      6.71420     -74.1835 
-2.05089e-05      1.42285      86.3734 
-1.37899e-05      2.69833     -98.3103 
-6.93773e-06      4.90931     -82.7447 
6.93699e-06      6.01848      143.854 
-0.000100057      6.47742     -92.7431 
6.92569e-06      6.49327     -156.396 
6.05196e-05      5.10569      175.507 
-1.37658e-05      3.05591     -118.326 
-6.06416e-05      5.97566      168.709 
-2.05123e-05      3.52366      84.9528 
-8.04147e-05      4.90066     -82.6140 
-5.32347e-05      3.20208      26.3250 
1.35607e-05      6.53380     -153.357 
-3.36494e-05      5.25921     -70.9105 
8.06330e-05      3.59235     -34.7960 
6.01493e-05      3.80149      113.733 
6.88364e-06      4.96961     -154.621 
7.31699e-05      6.92511     -66.6928 
2.05294e-05      4.91452     -45.4122 
6.86557e-06      5.76590      144.601 
3.98729e-05      3.06780     -83.8248 
-6.83733e-06      1.89908     -128.801 
-4.06338e-05      4.01155      63.1795 
-2.00392e-05      5.16759     -86.8940 
3.99668e-05      2.63486      33.3885 
-6.57930e-05      5.91436      172.226 
8.01455e-05      5.91752      174.472 
-3.37616e-05      6.45954      146.556 
5.29503e-05      6.49844     -156.512 
2.70271e-05      2.92226     -82.9236 
-1.99924e-05     0.408044      107.103 
-2.02828e-05      3.03765     -118.084 
0.000264648      6.96581     -150.122 
-6.78778e-06     0.454533     -50.3558 
6.79202e-06      1.59364     -48.3067 
-5.24968e-05      6.30765     -62.0130 
0.000247042      3.79486      72.0425 
-7.85297e-05      1.17047      163.113 
-1.34999e-05      2.69691     -98.1001 
-2.68681e-05      3.97921     -78.5489 
-8.52778e-05     0.859826     -123.136 
6.77773e-06      5.00186     -41.4338 
-1.33489e-05      1.48489     -167.555 
-2.69046e-05      3.11040      21.6988 
3.30519e-05      4.37499      158.126 
0.000247573      4.90740     -45.3302 
-4.65948e-05      5.47661     -53.9880 
-4.00770e-05      3.93406     -18.9876 
6.59288e-05      6.61020     -117.185 
-6.74713e-06      4.06100     -1.26990 
5.97756e-05      1.54897     -43.6921 
1.33861e-05      7.53554     -118.538 
6.73934e-06      6.70458     -74.1602 
-1.32312e-05      3.21896     -4.27584 
2.63662e-05      4.29223     -53.7175 
-1.99029e-05      6.41221     -68.5968 
0.000174268      6.92876     -72.0096 
-2.00159e-05     0.865332     -123.690 
-1.32225e-05      4.94171     -122.018 
6.59684e-05      3.26827      111.541 
0.000111286      6.71148     -74.2657 
-0.000117695      4.22765     -14.6608 
-3.31165e-05      3.52456      84.7909 
-2.62726e-05      1.41227      86.7527 
-9.20929e-05      4.02047      63.2438 
4.57427e-05      5.95732     -154.123 
-3.27366e-05      4.06079     -1.12883 
-8.40412e-05      3.10728      10.0080 
-1.99277e-05      3.03295     -117.917 
-6.67770e-06      5.10612      140.324 
-2.65391e-05      6.45404      146.630 
-6.66164e-06      5.89092     -45.8941 
0.000259295      4.80355      46.7715 
-6.65904e-06      2.69551     -97.8896 
-0.000121986      7.65208     -142.861 
3.93420e-05      2.92104     -83.1183 
1.32229e-05      3.91959      114.734 
-1.30351e-05      4.83293     -149.402 
-3.94063e-05      5.43000     -90.0000 
6.64786e-06      5.79615      144.692 
-4.60427e-05      2.31355     -96.2034 
6.64775e-06      8.92774     -132.140 
-6.64005e-06      1.89130     -128.991 
1.97673e-05      4.96533     -154.725 
-3.27325e-05      6.26266      155.972 
-3.94675e-05      3.11970      21.6309 
-1.31882e-05      5.65926     -55.0743 
-3.30351e-05      4.91452      44.5878 
-1.30066e-05     0.446878     -49.5378 
0.000103637      8.93445     -132.187 
5.17167e-05      6.23667     -150.722 
0.000418423      8.42167     -135.144 
3.26309e-05      3.91847     -84.4349 
9.59293e-05      6.05178     -170.008 
6.59312e-06      6.43457     -123.912 
3.25950e-05      5.04707      42.3501 
2.60702e-05      7.54032     -118.604 
-2.61712e-05      3.02828     -117.750 
6.57600e-06      5.80432      144.749 
-3.26621e-05      6.44854      146.704 
-8.37928e-05      3.91843     -19.2210 
-8.79370e-05      4.15043     -117.244 
-0.000121325      6.79199     -105.018 
-0.000249148      4.92165      44.5061 
0.000114869      6.76993     -106.829 
0.000116025      5.92747      174.482 
-1.30167e-05      3.95601      147.595 
9.59574e-05      7.00032     -146.242 
-6.54299e-06      1.89760     -129.226 
4.49686e-05      3.81251      168.808 
0.000177582      4.91444     -45.2473 
-6.54633e-06      5.54063     -147.830 
-5.16178e-05      3.53544      84.6442 
3.87032e-05      5.83459      144.839 
-6.53347e-06      3.06936      99.1861 
-6.53233e-06      3.10363      2.77022 
2.57596e-05      4.37138     -178.558 
-5.77969e-05      5.96585      168.690 
5.79306e-05      1.55621     -43.4378 
-7.64640e-05      4.11953      3.89734 
-6.52131e-06      5.47074     -54.0727 
-1.93923e-05      2.90833      142.263 
7.70407e-05      4.84435     -159.582 
6.50927e-06      2.33600     -53.1792 
-1.28904e-05      5.37557      141.041 
4.50695e-05      3.58415     -34.8873 
-6.50126e-06      1.48277     -167.932 
-1.29114e-05      6.64446     -101.107 
1.94588e-05      3.79747      113.595 
-6.37553e-05      2.30361     -96.2303 
-6.49510e-06      5.89788     -45.8243 
1.92751e-05      4.08104      164.363 
-2.58033e-05      3.06111      99.4008 
-2.58097e-05      6.45143      146.827 
0.000102510      3.67724      100.974 
-0.000170017      5.46265     -54.0112 
5.09194e-05      6.13440      176.074 
-4.42435e-05      3.80490     -21.9133 
1.91974e-05      6.44016     -123.986 
-6.40460e-05      3.13268      21.7335 
0.00124361      3.67535      100.821 
-6.48003e-06      5.25595     -71.0135 
-1.93788e-05      3.01015     -117.501 
-4.46413e-05      1.73254      111.679 
-4.48287e-05      5.43001     -90.1055 
-6.47211e-06      4.01602      143.301 
-0.000183651      6.48741     -92.7389 
-0.000232718      6.86298     -74.7083 
-6.46910e-06      2.31465     -96.4495 
-0.000158321      4.02498      63.1166 
1.28559e-05      4.38427      158.174 
0.000150828      6.90803     -113.188 
5.07237e-05      6.92116     -66.7688 
6.45463e-06      2.64322      33.2692 
8.85597e-05      3.25897      111.606 
9.51420e-05      6.59674     -117.148 
2.57148e-05      3.79348      113.456 
1.91734e-05      4.96107     -154.830 
-0.000150665      3.05949      99.2160 
6.44009e-06      4.04738      29.2884 
0.000112742      7.54512     -118.671 
0.000219268      6.20468      166.770 
-5.69417e-05      4.89204     -82.4828 
1.28228e-05      3.68763     -30.1110 
6.43052e-06      6.86225     -64.8167 
6.43296e-06      4.38800      158.053 
-6.42602e-06      1.47872     -168.690 
2.55179e-05      3.91945     -84.2894 
-5.72757e-05      3.72151      64.5367 
-3.19937e-05      3.00554     -117.332 
1.28047e-05      5.80923     -157.319 
-3.17024e-05      3.22893     -4.26261 
1.27881e-05      2.53269     -49.6441 
-3.78425e-05      3.19312      26.4046 
6.41689e-06      5.03968      42.4266 
-0.000175886      6.44306      146.779 
0.000258495      5.38072      42.1376 
3.78399e-05      3.05786     -83.8047 
-5.64773e-05      6.25761      155.852 
-6.93162e-05      4.05079     -1.13162 
-6.40160e-06      3.30619     -47.8196 
-3.78992e-05     0.411096      108.435 
-0.000193595      5.90445      172.213 
-3.78107e-05     0.873670     -123.326 
-0.000132514      4.23019     -14.7918 
6.34648e-05      3.78951      113.318 
3.78450e-05      2.91112     -83.0947 
-6.39166e-06      1.47679     -169.071 
4.42137e-05      5.02555      42.4194 
0.000187937      6.70878     -74.3479 
0.000262078      6.70361     -155.499 
6.93472e-05      4.35013      54.9217 
-6.89723e-05      3.53638      84.4829 
9.98306e-05      4.90597     -172.151 
-6.37644e-06      1.91031     -129.690 
6.37158e-06      6.48927     -156.477 
-5.64415e-05      2.90658      141.987 
0.000125552      4.00476     -9.48584 
0.000132036      8.94117     -132.235 
6.35532e-06      4.39727      158.102 
-1.89893e-05      1.47492     -169.452 
8.15533e-05      3.57595     -34.9789 
3.76869e-05      5.80388     -157.190 
-0.000124867     0.868217     -122.775 
-3.79946e-05      3.00097     -117.163 
1.26769e-05      4.33554      161.858 
-1.26489e-05      3.95066      147.718 
1.26630e-05      4.39182      43.9852 
-0.000255798      6.38424      158.015 
0.000225753      4.81041      46.6847 
0.000308049      5.93742      174.491 
0.000429191      8.17501     -138.471 
1.26622e-05      5.72171      144.532 
6.32318e-06      3.65168      20.5193 
3.14264e-05      3.92940     -84.3039 
2.50222e-05      5.26654      150.417 
1.26066e-05      2.52622     -49.8169 
0.000348424      3.79179      72.1862 
6.88745e-05      4.85721     -159.513 
6.31595e-06      4.31613      154.325 
6.23513e-05      1.56349     -43.1858 
1.25443e-05      3.68402     -30.3236 
-6.31314e-06      3.14197      21.6660 
1.88822e-05      8.00141     -127.944 
-6.31872e-06      4.72810      40.9693 
3.75067e-05      3.35018     -29.7025 
1.26054e-05      4.01882      56.4681 
-5.61617e-05      3.90899     -19.2693 
6.31424e-06      5.84277      144.896 
2.51195e-05      4.33244      161.983 
1.88424e-05      6.25029     -150.687 
-6.29907e-06      3.14568      21.8352 
-6.29895e-06      3.31361     -47.9357 
-4.99043e-05      5.95605      168.671 
-1.24930e-05      5.25270     -71.1166 
2.48832e-05      4.14209     -69.5087 
6.29543e-06      6.61007     -157.120 
-4.39053e-05      2.99641     -116.993 
3.13251e-05      7.19195     -124.176 
9.36089e-05      3.78556      113.179 
1.88210e-05      5.71357      144.474 
-8.07860e-05      1.47472      159.353 
-7.45927e-05      3.71722      64.6758 
-1.87536e-05      5.42001     -90.1057 
-0.000167874      3.15496      21.7677 
-0.000180237      5.05911      35.6693 
-3.74508e-05      1.47313     -169.834 
1.25370e-05      6.61928     -157.154 
0.000186150      4.01330      56.5871 
3.74244e-05      3.41808      142.728 
1.25182e-05      5.86489      144.928 
1.25092e-05      4.93779     -112.254 
1.24751e-05      5.39965     -64.9062 
-2.49058e-05      5.73847     -59.4130 
-6.25755e-06      1.16090      162.970 
6.25457e-06      4.40284      158.271 
-7.43989e-05      2.30471     -96.4775 
6.24980e-06      6.31172     -164.092 
-6.24408e-06      3.78600     -104.220 
0.000143030      6.57873     -117.032 
-4.35435e-05      4.15740      58.3744 
4.34113e-05      6.25901     -150.732 
0.000136272      7.00864     -146.287 
-0.000216786      7.35721     -64.1315 
-3.11295e-05      2.99189     -116.822 
2.48686e-05      5.69962      144.497 
6.21986e-05      2.51213     -49.8440 
6.20394e-05      7.48535     -125.155 
-6.24028e-06      1.73626      111.985 
-1.24437e-05      3.09571      9.85788 
-4.34205e-05     0.414367      109.747 
-1.24368e-05      2.61375     -118.820 
-0.000204459      4.93579      44.5075 
1.86773e-05      7.17806     -124.155 
-3.72645e-05      6.67237     -67.6245 
-0.000291070      4.03843      63.0543 
2.47874e-05      2.33624      147.943 
-0.000191941      4.22052     -14.8265 
-0.00168444      6.70858     -77.5175 
-0.000253784      6.49788     -92.8228 
2.48161e-05      4.33887      162.150 
1.24407e-05      6.62850     -157.187 
2.48444e-05      2.90993     -83.2902 
0.000453360      5.37331      42.2091 
1.85739e-05      3.64232      20.5745 
0.000222838      4.79627      46.6897 
2.47812e-05      3.83021      169.013 
4.95296e-05      6.76705     -106.748 
0.000198074      8.94789     -132.282 
1.24212e-05      5.87307     -173.056 
6.21953e-06      5.13560      175.533 
4.95573e-05      3.25530      111.442 
1.86164e-05      4.34439      55.0296 
1.85904e-05      3.93041     -84.1589 
-3.71995e-05      4.04079     -1.13442 
-6.80490e-05      7.67407     -142.891 
-1.85802e-05      5.42004     -90.2114 
-3.09835e-05      2.98739     -116.651 
8.65829e-05      7.17245     -124.089 
4.95180e-05      4.87008     -159.444 
-6.20566e-06      1.16387      162.499 
6.20371e-06      4.95084     -112.317 
6.20982e-06      4.41213      158.319 
0.000130299      3.34648     -29.9360 
4.33360e-05      4.00312     -9.34467 
6.20400e-06      6.30210     -164.067 
5.56836e-05      5.00405      42.4893 
6.20368e-06      5.87307      144.984 
-6.19904e-06      3.23890     -4.24946 
9.89724e-05      5.86315     -173.045 
1.85622e-05      5.27148      150.323 
3.70970e-05      3.41013      142.626 
-0.000615998      3.54731      84.3376 
1.85583e-05      3.67539     -30.4023 
2.47720e-05      3.79476      113.119 
6.19295e-06      5.79466     -157.152 
0.000111267      4.00202     -4.44263 
0.000826304      8.41458     -135.096 
-2.47284e-05      1.47139     -170.218 
-2.47483e-05      1.15434      162.350 
1.23593e-05      4.95464     -112.424 
-4.32738e-05      6.67077     -67.4330 
0.000155282      3.78784      137.889 
-0.000533641      6.86562     -74.6278 
1.23660e-05      6.92642     -66.8774 
-0.000497843      4.14365      58.4197 
-0.000123730      3.05791      99.0311 
-1.85917e-05      6.43469      146.730 
-0.000156686      2.90489      141.710 
-7.66752e-05      6.79459     -105.100 
3.71448e-05      3.56776     -35.0710 
-2.47276e-05      1.92982      101.659 
1.23586e-05      5.14557      175.542 
1.85362e-05      2.90119     -83.0710 
0.000143877      6.63772     -157.221 
-6.18820e-06      5.73338     -59.4990 
3.08942e-05      4.35831      54.9972 
-6.18123e-06      2.60895     -118.628 
0.000333443      5.94738      174.500 
6.18253e-06      2.51859     -49.6701 
6.18442e-06      5.69148      144.439 
-6.19933e-05      3.79563     -21.9696 
-0.000590914      8.08906     -137.355 
-3.08983e-05      2.98292     -116.479 
6.18921e-06      3.78164      113.039 
-3.09201e-05      6.43183      146.606 
-6.18127e-06      7.51373     -56.8387 
9.93684e-05      4.41565      29.5839 
-9.91968e-05      4.05060    -0.990198 
0.000161117      3.79084      112.980 
6.18108e-06      4.43072      158.415 
-6.18249e-06      3.89955     -19.3178 
2.47046e-05      5.68567      144.521 
-6.18640e-05      6.89153     -120.137 
-1.23504e-05      3.18416      26.4846 
-1.23653e-05      2.62252     -118.715 
-1.23526e-05      5.94624      168.652 
0.000219343      6.70609     -74.4302 
1.23615e-05      4.34534      162.316 
-0.000410637      6.37872      157.898 
-1.23431e-05      5.72477     -59.4482 
0.000174756      7.72961     -135.891 
3.09088e-05      6.17797     -156.838 
7.48652e-05      3.99326     -9.36797 
4.32491e-05      3.24600      111.506 
-1.85367e-05     0.417852      111.038 
6.17660e-06      3.80816      34.1908 
9.90955e-05      7.17753     -148.502 
-1.85323e-05      6.42620      146.359 
-1.23459e-05      3.09414      2.96413 
1.23497e-05      5.15554      175.550 
1.23515e-05      3.93144     -84.0139 
-0.000574127      5.05329      35.5772 
6.17845e-06      4.44002      158.462 
6.17442e-06      5.88127      145.040 
-2.46997e-05      2.97847     -116.307 
-3.71020e-05      2.75951      168.079 
6.17206e-06      4.88296     -159.375 
0.000489110      4.80313      46.6029 
-3.08973e-05      6.42343      146.236 
6.17862e-06      1.84358      164.908 
1.23541e-05      3.55384      15.1703 
6.20371e-05      7.54992     -118.738 
1.23817e-05      2.90000     -83.2671 
-0.000192124      4.95707      44.4279 
0.000292575      8.95462     -132.330 
2.47178e-05      4.89232     -159.417 
-0.000340174      6.15374     -48.0958 
-2.47268e-05      6.66539     -67.3206 
6.17654e-06      5.68595      161.119 
-2.47757e-05      7.20294     -120.909 
0.000340778      3.78875      72.3302 
3.09724e-05      3.81644      34.1065 
1.23660e-05      5.22556      171.637 
3.09779e-05      4.35185      162.481 
1.23499e-05      1.84621      164.609 
-0.000636383      7.35285     -64.2016 
-3.11485e-05      5.46853     -53.9264 
-3.74686e-05     0.876641     -122.421 
-5.03751e-05      3.19758      26.5651 
-1.23820e-05      3.08585      9.88967 
1.23842e-05      1.94010     -52.5394 
6.17573e-06      4.95847     -112.531 
-6.17548e-06      2.61773     -118.523 
-6.17635e-06      3.88402     -19.5546 
0.000286207      6.55642     -87.4649 
2.47712e-05      5.67753      144.462 
6.17952e-06      3.05895     -83.6184 
4.33779e-05      5.91143     -165.000 
4.33621e-05      7.15856     -124.067 
6.18185e-06      4.44933      158.509 
0.000413307      4.99668      42.5668 
0.000146299      6.78240     -106.885 
0.000331476      6.99477     -146.310 
1.86085e-05      3.40219      142.524 
2.48262e-05      3.62945      20.4821 
-1.23700e-05      3.09467      3.14902 
1.23657e-05      5.16551      175.559 
4.33566e-05      3.99205     -4.45374 
-0.000112418      6.41239      146.062 
-2.47579e-05      2.97405     -116.134 
-0.000969794      6.49838     -92.9108 
5.61643e-05      6.27262     -150.697 
1.23780e-05      1.85586      164.691 
4.34340e-05      3.82102      66.7227 
-6.18465e-06      2.83214      77.9759 
6.19040e-06      6.93035     -66.8014 
1.23837e-05      6.21441      166.791 
-6.18822e-06      5.71969     -59.5345 
1.86142e-05      6.42515     -156.228 
4.97428e-05      4.00126     -4.29986 
-7.49335e-05      6.66925     -67.2414 
0.000898986      6.63702     -96.0542 
6.19317e-06      2.05080      163.863 
6.19081e-06      4.90461     -172.266 
-1.88131e-05      3.72626      64.7416 
2.48455e-05      4.90520     -159.348 
1.86828e-05      3.94138     -84.0290 
-6.19241e-06      1.47828      158.990 
-4.97709e-05      8.09862     -133.649 
-2.53180e-05      2.84401      77.8208 
-6.19743e-06      6.41512      146.186 
-6.93069e-05      2.30586     -96.7244 
2.49194e-05      1.85852      164.393 
6.19294e-06      4.45863      158.557 
6.20162e-06      3.56202     -34.9393 
1.86783e-05      5.69219      161.247 
6.19865e-06      6.69451     -155.464 
0.000168551      6.64160     -157.141 
1.86331e-05      5.17548      175.567 
2.48582e-05      6.40663     -80.5671 
2.48497e-05      8.42769     -129.318 
-6.20321e-06      5.39593      140.942 
-0.000164088      4.21086     -14.8613 
-6.20876e-06      3.87460     -19.6041 
-2.48988e-05      2.96966     -115.961 
3.76319e-05      5.05558     -40.7488 
-0.000422453      4.04297      62.9279 
1.24543e-05      6.22187      166.902 
-6.21282e-06      3.08469      3.15922 
1.87486e-05      2.33944      148.280 
2.50134e-05      6.68127     -155.506 
-6.21545e-06      2.75182      167.833 
-2.49757e-05      2.83424      77.7782 
8.14138e-05      5.85202     -173.130 
1.24717e-05      4.46794      158.603 
0.00111824      5.36591      42.2809 
3.12247e-05      5.07528     -158.744 
3.77780e-05      3.24234      111.342 
-0.000126526      3.04803      99.0606 
-6.22537e-06     0.412311      112.834 
-6.22934e-06      2.76930      168.122 
6.31229e-05      5.90177     -164.975 
-0.000175483      4.97121      44.4295 
2.49637e-05      8.43403     -129.371 
3.12653e-05      4.36139      162.521 
0.000323502      3.82498      66.5851 
-0.000506654      5.05099      38.0043 
-2.52113e-05      1.14791      161.723 
0.000164272      3.99129     -4.31063 
-7.58429e-05      8.10319     -137.351 
-1.25381e-05      2.97968     -94.6199 
2.50154e-05      5.18545      175.576 
-4.44949e-05      4.14587     -117.121 
2.52530e-05      5.27644      150.228 
1.87437e-05      6.40828     -80.4789 
-3.13451e-05      6.88652     -120.065 
6.24617e-06      5.90926      163.988 
-2.51513e-05      5.94428      168.747 
-1.87771e-05      8.07759     -133.595 
-6.24939e-06      4.31213      143.582 
0.000109853      7.18276     -148.434 
6.24587e-06      4.35259      55.1050 
-6.25659e-06      2.76159      167.876 
6.25997e-06      3.66677     -30.4814 
6.25426e-06      6.41600     -156.192 
4.43207e-05      6.77951     -106.804 
0.000146633      8.41996     -129.361 
-1.25821e-05      3.07527      3.35552 
5.04773e-05      5.91887      164.015 
1.25394e-05      5.19920     -78.2362 
-0.000846608      8.34722     -132.135 
-3.78559e-05      2.96530     -115.787 
5.68348e-05      6.41649     -80.5817 
0.000108127      4.00781      56.7064 
-6.26987e-06      5.39449      140.793 
-2.52512e-05      4.31005      143.396 
6.27822e-06      4.92744     -159.321 
4.44964e-05      3.55958     -35.1634 
6.28538e-06      6.88052      149.036 
3.16361e-05      3.78695      112.841 
5.08322e-05      5.06597     -158.703 
3.78970e-05      5.19542      175.584 
6.28946e-06      4.47725      158.650 
6.29819e-06      6.87195      148.993 
-0.000104546      7.90712     -139.359 
4.44688e-05      4.36794      162.685 
-2.56494e-05      3.86518     -19.6538 
1.26684e-05      6.23161      166.923 
0.000272720      6.57419     -116.955 
3.88021e-05      5.19717     -78.3441 
6.31117e-06      6.86338      148.950 
-0.000116629      6.87285     -120.034 
0.00114175      8.96136     -132.377 
5.11177e-05      3.34283     -30.1701 
-3.92062e-05      1.06607      73.0948 
-0.000217223      4.99249      44.3508 
-1.90068e-05      6.48649     -152.052 
3.93253e-05      3.63882      20.4270 
-1.26828e-05      4.93415      40.8910 
6.32135e-06      6.85482      148.907 
-1.90461e-05      6.40970      145.938 
0.000202753      5.84209     -173.118 
-1.26988e-05      5.47442     -53.8418 
-2.54773e-05      6.66391     -67.1288 
1.27038e-05      6.84625      148.864 
-6.34519e-06      1.78059      109.351 
3.91919e-05      2.49804     -49.8714 
0.000125117      4.60977      33.1385 
4.51391e-05      3.78715      137.675 
6.35192e-06      4.94969     -159.295 
-0.000114778      5.93448      168.728 
1.27485e-05      6.28135     -150.742 
6.35491e-06      2.34796      148.408 
-1.91890e-05      2.74055      59.0362 
3.84491e-05      5.20539      175.593 
6.37937e-06      6.83770      148.821 
6.37427e-06      1.86815      164.476 
2.02045e-05      2.35306      115.149 
-3.87740e-05      2.96096     -115.613 
0.000335097      7.73679     -135.943 
-0.000258819      4.23803      53.3464 
8.46218e-05      5.92848      164.041 
0.000151660      6.41814     -80.4936 
-9.09223e-05      6.82298     -151.745 
1.29178e-05      6.67217     -155.471 
1.27942e-05      6.82914      148.777 
-8.50993e-05      6.40141      145.888 
1.29298e-05      4.89470     -172.251 
-0.000455272      3.70880      106.285 
6.39865e-06      3.94244     -83.8845 
2.59779e-05      3.23872      111.177 
6.41254e-06      4.50160      158.908 
-1.93972e-05      4.30000      143.130 
2.58596e-05      3.78308      112.701 
-1.28895e-05      4.92659      40.9671 
-1.93824e-05      2.75427      58.9649 
2.60953e-05      5.28512      150.282 
1.93133e-05      6.82059      148.734 
9.30353e-05      6.29496     -150.707 
7.85610e-05      4.37749      162.724 
-7.25087e-05      6.66780     -67.0496 
-0.000578855      6.50889     -92.9943 
0.000226550      3.98132     -4.32144 
2.61668e-05      5.06316     -40.6749 
-3.29786e-05      1.49402      132.016 
-9.35012e-05      2.30705     -96.9710 
1.95869e-05      2.03571      164.325 
1.94448e-05      6.24885      167.053 
1.29350e-05      5.07892     -158.639 
-1.96921e-05      3.06589      3.55302 
6.45033e-06      6.40685     -156.156 
-3.96169e-05      2.84614      77.6240 
-0.000275493      4.20119     -14.8963 
1.96274e-05      4.97193     -159.269 
1.94546e-05      6.81205      148.690 
-0.000223414      5.00664      44.3526 
-0.000137276      3.04647      98.8749 
4.56990e-05      5.21536      175.601 
4.63895e-05      5.89211     -164.950 
4.75545e-05      2.35128      148.744 
0.000220153      4.78900      46.6076 
0.000264386      3.99396      56.7476 
0.000130628      3.55141     -35.2564 
6.49278e-06      3.04902     -83.5976 
1.96314e-05      8.07845     -124.969 
-0.000174343      7.34850     -64.2718 
6.67536e-05      5.06961     -158.597 
6.51372e-06      3.80466      168.631 
-5.97791e-05      2.91275      141.832 
-0.000102418      2.75944      58.7870 
5.33399e-05      3.33419     -30.2564 
3.27816e-05      6.80351      148.646 
0.000141435      8.42630     -129.414 
-0.000166476      6.50225     -96.5348 
6.54074e-06      3.77923      112.562 
-1.31793e-05     0.871321     -121.866 
-6.54959e-06      4.04061    -0.992649 
-6.11562e-05      4.29802      142.943 
4.73095e-05      4.92148     -45.1646 
0.000234918      3.43991      115.299 
2.64404e-05      6.37323     -157.781 
-6.58018e-06      1.78354      108.638 
-1.32251e-05      4.14132     -116.998 
1.99019e-05      6.26611      167.184 
0.000102929      6.71305     -74.5353 
3.32453e-05      6.79497      148.602 
-0.000547543      6.86828     -74.5473 
0.000403588      3.78572      72.4744 
2.66388e-05      5.22533      175.610 
-0.000189755      6.81417     -151.705 
-2.01756e-05      2.95665     -115.438 
0.000169795      6.97946     -150.092 
-0.000754090      5.29537      40.9416 
0.000164738      8.07272     -124.911 
-0.000124299      6.36946      157.865 
6.64920e-06      3.77541      112.421 
-6.66322e-06      2.62177     -118.227 
-0.000993067      5.01379      44.2727 
0.000297647      5.93810      164.068 
-4.77869e-05      6.86785     -119.962 
-0.000381399      4.03407      62.8633 
6.68587e-06      3.77976      137.573 
0.000103864      4.38704      162.763 
-1.34408e-05      6.87664     -147.350 
6.71206e-06      2.02339      164.521 
-2.74114e-05      4.10239     -31.4428 
5.43032e-05      6.78643      148.558 
2.74487e-05      6.36946     -157.865 
-2.06363e-05      6.79394     -140.734 
6.71969e-06      3.78704      168.423 
4.09422e-05      5.23455      175.727 
2.82305e-05      3.94351     -83.7400 
-3.45003e-05      3.06444      9.76970 
-1.35105e-05      5.94471     -80.3158 
-2.06205e-05      3.84974     -19.8941 
-6.73694e-06      1.95346     -132.510 
0.000473918      3.57816      95.7743 
0.000328986      6.54688     -87.3736 
-1.35578e-05      6.86283     -147.375 
1.36581e-05      4.52960      159.044 
-6.78794e-06      5.48625     -53.6732 
3.46672e-05      2.03303      164.597 
2.76917e-05      6.27366      167.293 
0.000411267      5.83097     -173.204 
0.000616452      4.97519      42.6378 
-6.36454e-05      6.39876      145.764 
-0.000167502      5.94640     -80.2209 
-0.000184358      7.89953     -139.312 
-0.000159912      6.85441     -147.330 
7.66870e-05      4.23710      129.061 
-2.80416e-05      1.48735      131.730 
-4.93048e-05      6.67171     -66.9706 
0.000426711      8.40750     -135.048 
-6.85026e-06      5.28411     -50.3749 
4.34619e-05      5.19516     -78.4521 
0.000154597      8.05030     -130.516 
2.93086e-05      3.23512      111.012 
6.98005e-05      6.77791      148.514 
-1.39416e-05      2.90327      141.433 
-0.000241024      6.16825     -172.829 
4.17390e-05      4.79587      46.5208 
-2.11131e-05      2.95237     -115.263 
2.10200e-05      5.08257     -158.534 
0.000132441      4.59593      33.1023 
-2.11486e-05      5.27774     -50.4585 
6.97093e-06      6.41980     -80.4056 
3.55954e-05      4.53894      159.089 
-5.07700e-05      3.30927     -167.434 
2.17837e-05      5.88246     -164.924 
0.000103603      4.92854     -45.0822 
2.82133e-05      6.42800     -80.5084 
0.000169856      3.97135     -4.33231 
-6.99937e-06      1.78986      108.232 
-0.000110630      2.30829     -97.2174 
3.58639e-05      5.24452      175.735 
0.000195466      4.77486      46.6123 
7.01763e-06      5.07075     -40.6013 
5.19967e-05      6.30368     -150.751 
-5.09752e-05      6.86286     -119.890 
-0.000222882      4.13513      58.3471 
-4.45505e-05      4.09386     -31.5158 
8.67288e-05      6.76938      148.470 
7.11595e-06      4.51505      51.0231 
2.93277e-05      5.07326     -158.492 
-7.13117e-06      2.91110      141.555 
8.78331e-05      4.23080      128.956 
-4.37592e-05      6.20543      160.514 
0.000261798      6.59167     -83.5542 
0.000218219      4.52135      50.9246 
3.65517e-05      8.41223     -129.404 
0.000203292      6.58764     -116.993 
-7.18348e-06      1.79627      107.830 
0.000385103      6.91925     -71.9840 
5.09925e-05      6.34114      164.824 
-5.12496e-05      5.93253      168.823 
-1.46558e-05      3.05459      9.80153 
5.90237e-05      4.39659      162.801 
2.20299e-05      3.43087      115.370 
8.33162e-05      3.54325     -35.3497 
-3.03809e-05      4.29609      142.757 
3.00935e-05      4.64088     -111.091 
4.53213e-05      4.54829      159.134 
-0.000274769      8.35393     -132.186 
6.80726e-05      3.40523      104.281 
0.000168165      6.34376      164.737 
-7.38618e-06      6.39613      145.639 
-0.000130096      4.24606      53.4270 
0.000137783      6.76086      148.426 
7.41816e-06      5.07947     -40.3688 
-8.43068e-05      6.62012     -90.3462 
-7.41963e-06      6.66643     -66.8578 
-3.80926e-05      6.02406      157.863 
-6.14152e-05      6.20210      160.601 
-4.60241e-05      2.58940      46.8779 
-5.38315e-05      6.40439      145.690 
-7.67802e-05      5.94234      168.841 
2.29316e-05      2.49884     -85.1792 
0.000184861      4.76072      46.6171 
3.07180e-05      3.94462     -83.5956 
3.07030e-05      5.25449      175.743 
8.51040e-05      4.23858      128.871 
3.05699e-05      2.45601     -59.6764 
-3.08944e-05      3.38681     -161.405 
2.29123e-05      4.39001      162.638 
3.87307e-05      4.78000     -90.0000 
-4.65376e-05      5.06503      38.0238 
-4.65662e-05      4.20377     -15.0280 
-5.46017e-05      8.69699     -131.037 
-3.12503e-05      5.55946     -161.109 
-2.34225e-05      3.60347      114.075 
3.90591e-05      7.00309     -146.355 
7.70715e-06      8.41858     -129.457 
-1.55725e-05      6.85789     -119.817 
-3.91972e-05      4.12989      58.4652 
-3.12187e-05      6.80537     -151.665 
2.33696e-05      4.39956      162.677 
-1.56325e-05      2.70766      99.5667 
-5.49133e-05      6.16951     -172.737 
3.14180e-05      8.06700     -124.852 
2.35754e-05      3.40278      104.118 
-7.83924e-06      2.76463      58.6097 
4.73518e-05      6.60049     -83.6502 
1.57889e-05      4.55763      159.179 
-1.58153e-05      2.30957     -97.4635 
1.58062e-05      6.54643     -87.4610 
7.90590e-06      2.46465     -59.7938 
7.93165e-06      6.75234      148.381 
