! Center RA: 16 42 58.80997,  Dec: +39 48 36.99399 (2000.0)
! Established model.
! Flux (Jy) Radius (mas)  Theta (deg)  Major (mas)  Axial ratio   Phi (deg) T \
! Freq (Hz)     SpecIndex
0.00685216      4.65102     -93.9452 
0.00267432      4.38480     -94.7094 
0.000426900      4.38399     -94.5791 
0.00323731      4.39396     -94.5687 
0.00318750      4.64175     -94.0768 
0.00150783      4.40315     -94.4286 
0.00289012      4.63249     -94.2090 
0.00247883      4.41312     -94.4186 
0.00170056      4.62327     -94.3417 
0.00100291      4.42233     -94.2795 
0.000330970      4.73466     -92.5421 
0.000326299      4.36487     -94.7309 
0.000643575      4.75421     -92.4110 
0.000323261      4.61330     -94.3511 
0.000322414      4.44227     -94.2602 
0.000319801      4.34664     -95.0154 
0.00123363      4.60410     -94.4846 
0.000785387      4.45225     -94.2507 
0.000603259      4.76379     -92.2858 
0.000313499      4.33668     -95.0270 
0.000309736      4.46149     -94.1131 
0.000308628      4.77340     -92.1611 
0.00120668      4.32761     -95.1705 
0.000304432      4.78339     -92.1566 
0.000302152      4.59413     -94.4944 
0.00186727      4.46222     -94.2411 
0.000299676      4.80301     -92.0284 
0.000296212      4.85202     -91.6534 
0.00135890      4.47219     -94.2317 
0.000292697      4.86174     -91.5322 
0.000861765      4.31765     -95.1824 
0.000290392      4.61407     -94.4749 
0.000571052      4.87148     -91.4115 
0.000562155      4.60489     -94.6086 
0.000280685      4.74422     -92.4161 
0.000556086      4.88148     -91.4086 
0.000827819      4.30861     -95.3269 
0.000540327      4.73423     -92.4212 
0.00474174      4.89124     -91.2886 
0.000269596      4.61486     -94.5987 
0.00131017      4.29865     -95.3392 
0.000261476      4.60570     -94.7326 
0.000514779      4.73381     -92.3003 
0.000253230      4.61567     -94.7224 
0.000500589      4.28964     -95.4847 
0.000248349      4.72382     -92.3052 
0.000246885      4.60654     -94.8566 
0.000244877      4.28869     -95.3517 
0.000242848      4.72343     -92.1840 
0.00117896      4.27968     -95.4975 
0.00113694      4.89147     -91.4057 
0.000239799      4.61650     -94.8461 
0.000237915      4.73271     -91.9374 
0.000234048      4.61736     -94.9697 
0.000232036      4.73238     -91.8164 
0.000228958      4.73207     -91.6954 
0.000228050      4.46297     -94.3692 
0.000449470      4.62732     -94.9590 
0.00152467      4.26973     -95.5103 
0.00149200      4.45300     -94.3790 
0.000223647      4.73152     -91.4533 
0.000219270      4.73106     -91.2111 
0.000217507      4.63728     -94.9483 
0.000215508      4.73086     -91.0901 
0.000213085      4.63816     -95.0714 
0.000211385      4.73068     -90.9690 
0.000209388      4.64812     -95.0605 
0.000208094      4.76844     -96.2606 
0.000412425      4.73052     -90.8479 
0.000614106      4.26878     -95.3767 
0.000408921      4.77838     -96.2475 
0.000400497      4.73038     -90.7268 
0.000201409      4.60014     -95.3636 
0.000398931      4.78832     -96.2345 
0.000786032      4.26786     -95.2430 
0.000197885      4.89102     -91.1715 
0.000757879      4.44303     -94.3888 
0.00443242      4.90112     -93.8607 
0.000195709      4.62005     -95.3404 
0.000387544      4.73026     -90.6056 
0.000388090      4.79826     -96.2215 
0.000761565      4.89083     -91.0544 
0.000191134      4.26695     -95.1093 
 0.0114134      4.80820     -96.2086 
0.000190226      4.60109     -95.4876 
0.00209564      4.72026     -90.6069 
0.000375485      4.26608     -94.9756 
0.000185709      4.61104     -95.4757 
0.000695339      4.43306     -94.3987 
0.00765722      4.28169     -96.9756 
0.000720158      4.89065     -90.9373 
0.000183080      4.75850     -96.2737 
0.000364668      4.26358     -94.5739 
0.000179999      4.60205     -95.6115 
0.000353259      4.26203     -94.3059 
0.000175085      4.73862     -96.3001 
0.000174037      4.59210     -95.6237 
0.000345176      4.89050     -90.8201 
0.000173305      4.26129     -94.1718 
0.000172418      4.38097     -96.8168 
0.000505015      4.26058     -94.0377 
0.000334389      4.59309     -95.7478 
0.000499863      4.89037     -90.7030 
0.000167580      4.72868     -96.3134 
0.000325580      4.25988     -93.9035 
0.000163323      4.39090     -96.8013 
 0.0100040      4.89026     -90.5858 
0.000316898      4.59410     -95.8719 
0.000159951      4.40083     -96.7859 
0.000625893      4.25921     -93.7693 
0.000159073      4.71874     -96.3268 
0.000312786      4.43230     -94.2698 
0.00307452      4.71027     -90.6082 
0.000152764      4.69886     -96.3537 
0.000298917      4.41076     -96.7705 
0.000593744      4.25857     -93.6351 
0.000150784      4.59514     -95.9960 
0.000430183      4.43157     -94.1409 
0.000147708      4.68892     -96.3672 
0.000285792      4.58519     -96.0090 
0.000834310      4.25795     -93.5008 
0.000280399      4.67899     -96.3808 
0.000537371      4.42069     -96.7553 
0.000135379      4.58625     -96.1332 
0.000262870      4.43086     -94.0119 
0.000133312      4.66905     -96.3944 
0.000773255      4.25735     -93.3665 
0.000251239      4.65911     -96.4081 
0.000128871      4.57631     -96.1466 
0.00194984      4.64917     -96.4218 
0.000476827      4.43062     -96.7401 
0.000358571      4.43017     -93.8829 
0.00105689      4.25677     -93.2321 
0.000122400      4.58733     -96.2574 
0.00259074      4.63924     -96.4357 
0.000322675      4.61936     -96.4635 
0.000326251      4.42950     -93.7538 
0.000710516      4.62930     -96.4495 
0.00463727      4.70027     -90.6095 
0.000517805      4.44055     -96.7249 
0.00104378      4.25622     -93.0977 
0.00127210      4.45048     -96.7098 
0.000388608      4.42886     -93.6248 
0.00126127      4.25569     -92.9633 
0.000263357      4.42824     -93.4956 
0.000319524      4.42764     -93.3665 
0.00119916      4.25519     -92.8288 
0.000287984      4.42706     -93.2373 
0.000197919      4.42651     -93.1080 
0.00109135      4.25470     -92.6943 
0.00174622      4.46041     -96.6948 
6.30420e-05      4.42598     -92.9788 
0.00248334      4.44190     -91.6771 
0.000986747      4.25424     -92.5598 
0.00104344      4.25381     -92.4252 
0.000547086      4.69027     -90.6108 
0.000256369      4.25340     -92.2906 
 0.0163719      1.50213     -86.9471 
0.00519435      1.50270     -86.5664 
0.00165416      1.49215     -86.9267 
0.00463146      1.27193     -93.1548 
0.00209200      1.28191     -93.1302 
0.00201405      1.51268     -86.5891 
0.000410408      1.44056     -88.4089 
0.00118299      1.42014     -89.1931 
0.000783670      1.29190     -93.1060 
0.00201195      1.28141     -92.6838 
0.00221018      1.52329     -86.2360 
0.000755292      1.42032     -88.7897 
0.00180595      1.29139     -92.6630 
0.00346362      1.41014     -89.1873 
0.000363459      1.30138     -92.6425 
0.00103396      1.53395     -85.8878 
0.00314979      1.53326     -86.2605 
0.00193020      1.40004     -89.5908 
0.00266029      1.40014     -89.1815 
0.00402154      1.54392     -85.9144 
0.00250944      1.40032     -88.7724 
0.00147507      1.40057     -88.3634 
0.00516085      1.54324     -86.2847 
0.000279144      1.39032     -88.7636 
0.00109691      1.39058     -88.3517 
0.00110505      1.39090     -87.9399 
0.000884787      1.39129     -87.5283 
0.000411933      1.39176     -87.1170 
0.00107050      1.39230     -86.7060 
0.00150415      1.39291     -86.2954 
0.00457626      1.54263     -86.6553 
 0.0110807      1.55322     -86.3086 
0.000889282      1.39359     -85.8851 
0.00129375      1.38362     -85.8554 
0.00350461      1.38438     -85.4426 
0.000147101      1.31244     -93.4946 
0.00152767      1.38521     -85.0303 
0.000128382      1.32242     -93.4682 
0.000124716      1.38004     -89.5848 
0.000617774      1.39014     -89.1757 
0.00226590      1.38611     -84.6185 
0.000331140      1.38000     -90.0000 
0.000286219      1.33240     -93.4422 
0.000813352      1.39004     -89.5878 
0.00203716      1.38708     -84.2072 
0.000633442      1.32378     -94.3323 
0.000657208      1.39807     -83.8408 
0.000226982      1.39000     -90.0000 
0.00182421      1.38813     -83.7966 
0.000841356      1.39918     -83.4337 
0.000641102      1.56461     -85.6013 
8.85338e-05      1.40000     -90.0000 
8.21459e-05      1.41004     -89.5937 
3.96283e-05      1.56541     -85.2364 
0.00462398      1.58146     -83.0997 
0.00268850      1.41152     -82.6736 
0.000146522      1.58028     -83.4596 
0.000289444      1.58912     -83.8589 
0.000344436      1.58808     -84.2176 
0.00259937      1.63371     -86.1393 
0.00305554      1.36132     -92.5261 
0.000452807      1.58269     -82.7403 
0.00115741      1.41283     -82.2714 
0.000484014      1.57544     -81.9728 
0.000616170      1.57686     -81.6130 
0.00137012      1.41421     -81.8699 
8.84519e-05      1.55116     -87.7832 
0.000128176      1.57835     -81.2538 
0.000283620      1.55081     -88.1524 
0.000239983      1.57991     -80.8954 
0.000258113      1.58152     -80.5377 
3.75173e-05      1.54081     -88.1404 
7.34693e-05      1.55052     -88.5217 
0.000506025      1.54052     -88.5121 
0.000297017      1.58319     -80.1807 
0.00112330      1.41566     -81.4692 
0.000318332      1.58493     -79.8245 
0.000251314      1.54029     -88.8840 
0.000388386      1.58673     -79.4691 
0.000140134      1.53052     -88.5024 
2.16711e-05      1.63306     -86.4893 
4.29958e-05      1.58858     -79.1145 
2.14206e-05      1.52053     -88.4926 
0.00164952      5.11353     -87.8706 
0.00567165      4.89908     -100.943 
0.00178216      5.11391     -87.7586 
0.000160406      4.07541     -101.751 
0.00387306      4.06562     -101.780 
0.000307596      4.68961     -86.3322 
0.00166482      4.69026     -86.2103 
0.000430027      5.12316     -87.9865 
0.000145037      5.15218     -91.6683 
0.000418936      5.15248     -91.7795 
0.000673603      5.12352     -87.8748 
0.000534191      4.67963     -86.3244 
0.000135041      5.15281     -91.8906 
0.000516309      5.15314     -92.0018 
0.000817645      4.68028     -86.2022 
0.000505411      5.12390     -87.7630 
0.000124135      5.13352     -87.8789 
0.000482204      5.15350     -92.1129 
0.000955227      4.66965     -86.3165 
0.000923875      5.13390     -87.7674 
0.00241679      4.90099     -101.058 
0.000909130      4.05584     -101.809 
0.000340781      5.15388     -92.2240 
0.000669557      4.65967     -86.3086 
0.000428327      5.15428     -92.3350 
0.000322380      5.13430     -87.6559 
0.000425857      4.04605     -101.838 
0.000631800      4.64969     -86.3007 
0.000208397      5.14389     -87.7717 
0.000103728      4.03626     -101.867 
0.000102720      5.15470     -92.4461 
0.000102529      4.02647     -101.896 
0.000682971      5.14429     -87.6604 
0.000401481      4.63971     -86.2927 
0.000101578      4.01669     -101.925 
0.000101027      5.16427     -92.3305 
0.000100473      4.09298     -101.557 
0.000769179      4.91080     -101.035 
9.95345e-05      3.99506     -101.844 
0.000292398      5.16469     -92.4414 
0.000195311      4.10278     -101.529 
0.00146893      4.62973     -86.2847 
0.000288968      3.98527     -101.874 
0.000189439      5.13472     -87.5444 
0.000378741      4.61975     -86.2767 
0.000367194      4.12040     -101.337 
0.000367333      5.16512     -92.5522 
9.36013e-05      5.14471     -87.5491 
9.33298e-05      3.97549     -101.904 
9.26372e-05      4.60913     -86.3926 
0.000452176      4.91273     -101.150 
9.17993e-05      4.59915     -86.3848 
0.000445559      3.96365     -101.792 
0.000160450      4.73017     -86.2423 
0.000268263      4.58917     -86.3769 
8.99488e-05      5.17248     -88.2274 
0.000435291      4.92254     -101.127 
0.000174514      5.12516     -87.4279 
8.87862e-05      4.74015     -86.2502 
0.000342500      5.16558     -92.6630 
8.76417e-05      5.13515     -87.4329 
0.000258984      4.57919     -86.3690 
0.000340990      4.13021     -101.310 
8.68173e-05      5.19189     -88.4548 
8.67349e-05      4.75013     -86.2581 
8.54444e-05      4.83451     -100.729 
0.000169029      3.95386     -101.821 
0.000294571      4.76944     -86.3937 
8.43665e-05      5.20216     -88.3477 
0.000411737      4.56921     -86.3611 
8.40739e-05      4.94410     -101.196 
0.000165861      4.82283     -100.634 
8.35660e-05      5.10564     -87.3057 
8.28177e-05      4.95391     -101.174 
8.25850e-05      5.21216     -88.3509 
0.000624912      3.94203     -101.709 
0.000319095      5.16605     -92.7738 
0.000319723      4.13807     -101.147 
0.00117741      4.77942     -86.4012 
0.000162192      4.96372     -101.151 
8.13854e-05      5.09565     -87.3004 
0.000239969      4.81116     -100.539 
8.07623e-05      5.23245     -88.2477 
7.95887e-05      5.24276     -88.1418 
0.000157943      4.97547     -101.242 
0.000312910      4.55923     -86.3531 
0.000157257      5.06569     -87.2844 
0.000450027      4.79951     -100.444 
0.000154168      5.26308     -88.0401 
0.000230059      4.98528     -101.220 
0.000651718      4.14788     -101.120 
0.000506859      5.16655     -92.8846 
0.000371424      4.54925     -86.3451 
7.58390e-05      5.05524     -87.3923 
7.52790e-05      5.27307     -88.0438 
0.000149008      4.99509     -101.197 
0.000146896      5.05570     -87.2791 
0.000146842      5.28307     -88.0475 
0.000143247      4.78941     -86.4087 
0.000216619      5.00490     -101.175 
0.000553230      3.93022     -101.596 
0.000282834      4.53927     -86.3371 
0.000676335      4.78787     -100.348 
7.16598e-05      5.29341     -87.9430 
0.000137871      5.04571     -87.2737 
0.000345408      5.01471     -101.153 
0.000139798      5.30340     -87.9469 
0.000137704      5.04525     -87.3871 
0.000136656      4.52866     -86.4552 
0.000201982      5.31340     -87.9507 
0.000323907      5.16706     -92.9953 
0.000133736      4.52929     -86.3290 
0.000630669      4.15769     -101.094 
0.000262511      5.02452     -101.131 
0.000322085      4.51868     -86.4474 
0.000193561      5.32339     -87.9546 
0.000370751      5.03572     -87.2683 
0.000313205      3.92042     -101.625 
0.000521605      5.15761     -93.1120 
0.000251280      5.03433     -101.109 
0.000751321      4.77803     -100.369 
0.000124599      5.33339     -87.9584 
6.24963e-05      4.51931     -86.3209 
0.000419019      4.50870     -86.4395 
0.000240663      5.03627     -101.221 
0.000121214      5.33304     -88.0658 
0.000400900      3.91842     -101.482 
0.000175784      5.34303     -88.0694 
5.88441e-05      5.03526     -87.3819 
0.000342553      5.04608     -101.199 
0.00147150      4.16560     -100.932 
0.000418225      4.78879     -86.5282 
0.000326756      4.77624     -100.251 
5.74641e-05      4.50933     -86.3127 
0.000168840      5.35303     -88.0730 
0.000332505      4.49872     -86.4316 
0.000616084      5.02573     -87.2628 
0.000424584      5.05589     -101.177 
0.000107502      5.36302     -88.0766 
0.000107522      5.36270     -88.1834 
0.000734727      3.90862     -101.511 
0.000159035      4.49936     -86.3045 
5.30643e-05      5.37093     -91.0668 
0.000247558      5.15816     -93.2230 
0.000103406      5.38075     -90.9584 
0.000354609      4.48874     -86.4237 
0.000101972      5.37302     -88.0802 
0.000150325      5.39059     -90.8503 
0.000150561      5.06570     -101.155 
0.00133263      4.76640     -100.273 
0.000334369      5.06764     -101.266 
9.73653e-05      5.37336     -87.9736 
0.000239578      4.48938     -86.2963 
0.000190759      5.39075     -90.9566 
9.25921e-05      5.37372     -87.8671 
0.000230757      4.47876     -86.4157 
9.22019e-05      5.01575     -87.2574 
4.62898e-05      5.38335     -87.9774 
0.000223716      5.39093     -91.0629 
0.000269246      5.07745     -101.244 
0.000213700      5.15873     -93.3339 
8.84243e-05      5.00576     -87.2519 
0.00129993      5.49263     -88.2264 
0.000347773      4.47940     -86.2880 
4.44323e-05      5.14817     -86.7708 
0.000169529      4.99577     -87.2464 
0.000769077      3.89683     -101.396 
4.33480e-05      5.08726     -101.222 
0.000169296      5.08921     -101.332 
0.000166543      5.39112     -91.1691 
4.24648e-05      5.15816     -86.7770 
0.000285611      4.46878     -86.4077 
4.17125e-05      5.34453     -87.6408 
0.000234484      4.98578     -87.2409 
0.000162961      5.09902     -101.310 
0.000115352      5.16871     -86.6726 
0.000340242      5.39134     -91.2754 
7.92521e-05      5.11079     -101.398 
3.96499e-05      5.33454     -87.6364 
7.81821e-05      4.75946     -86.3861 
0.000265701      4.46942     -86.2797 
0.000278555      5.14934     -93.4514 
3.90649e-05      5.12060     -101.376 
0.000370747      5.17759     -101.701 
0.000215658      4.97363     -101.717 
0.000257156      4.45880     -86.3996 
0.000558382      4.97579     -87.2353 
7.36902e-05      4.74948     -86.3785 
0.000962325      4.17542     -100.906 
3.72068e-05      5.32497     -87.5245 
0.000856348      4.75479     -100.176 
3.51921e-05      5.31498     -87.5198 
0.000304034      5.17962     -101.809 
0.000298931      5.39157     -91.3816 
0.000267867      4.45944     -86.2714 
9.72554e-05      5.17870     -86.6790 
0.000259268      4.44882     -86.3915 
3.34590e-05      5.30499     -87.5151 
6.57514e-05      4.72019     -86.2344 
0.000131113      3.88703     -101.426 
0.000426551      4.96384     -101.740 
0.000916846      5.18168     -101.917 
0.000329028      3.88506     -101.281 
6.11550e-05      5.29544     -87.4024 
0.000120873      4.71021     -86.2264 
0.000423022      5.39182     -91.4879 
0.000258026      4.44946     -86.2630 
0.000202884      4.43884     -86.3834 
0.000319185      4.96580     -87.2298 
0.000159875      5.14995     -93.5625 
0.000131565      5.28545     -87.3974 
8.27905e-05      4.70023     -86.2184 
7.92239e-05      5.18868     -86.6854 
0.000360147      3.87525     -101.310 
0.000160349      4.75303     -100.057 
0.000205673      4.42886     -86.3752 
0.000223084      4.74318     -100.078 
0.000149364      4.43948     -86.2546 
0.000123048      5.39209     -91.5941 
2.48054e-05      4.97532     -87.3504 
0.00908576      3.81425     -92.7049 
0.00310862      3.80475     -92.8624 
0.000118638      3.81379     -92.5548 
0.000461635      3.88021     -90.5907 
0.000221200      3.88012     -90.4430 
0.000215292      3.88005     -89.7047 
0.000209755      3.88012     -89.5570 
0.000304707      3.88021     -89.4093 
9.90812e-05      3.88046     -90.8859 
0.000195399      3.88032     -89.2617 
0.000737052      3.79527     -93.0207 
0.000189014      3.88063     -91.0336 
0.000189039      3.88046     -89.1141 
9.22593e-05      3.88063     -88.9664 
0.000356760      3.87105     -88.6678 
0.000265340      3.88082     -91.1812 
0.000419840      3.79581     -93.1715 
0.000732778      3.87129     -88.5198 
0.000328106      3.88104     -91.3288 
0.00102988      3.78640     -93.3309 
0.000516329      3.88129     -91.4764 
0.000783661      3.87156     -88.3719 
0.000741601      3.89129     -91.4726 
0.000796298      3.77763     -93.6426 
0.00226355      3.87186     -88.2240 
0.00167231      3.89156     -91.6198 
0.000892049      3.86254     -87.9228 
0.000272184      3.76898     -93.9556 
0.000797003      3.76120     -94.4221 
0.00159612      3.69005     -90.3105 
0.000443408      3.90185     -91.7624 
0.000569600      4.09001     -89.8599 
0.000121616      3.76198     -94.5739 
0.000199351      3.97786     -93.6033 
3.94741e-05      3.77701     -93.4912 
0.000545897      3.75367     -94.8904 
0.000463301      3.78583     -93.1798 
0.000357507      3.97850     -93.7470 
0.000505318      3.61670     -93.4874 
0.00130588      4.09005     -89.7198 
0.000213477      3.87218     -88.0761 
0.000301949      3.97917     -93.8907 
9.26583e-05      3.86291     -87.7746 
0.000558921      3.69001     -90.1553 
0.000575300      3.60799     -93.8141 
0.00100145      3.94036     -95.8263 
0.000856786      3.75453     -95.0425 
0.000125923      3.85421     -87.3232 
0.000169089      3.89104     -91.3254 
2.28171e-05      3.97986     -94.0343 
0.000290173      3.69000     -90.0000 
0.000206151      3.88104     -88.6712 
2.05769e-05      3.98984     -94.0242 
0.000118083      4.10761     -95.3081 
7.85330e-05      3.75542     -95.1944 
0.00366707      3.04133     -91.6958 
0.00321774      3.52278     -87.7224 
0.00244378      3.47086     -83.7145 
0.000629531      2.91620     -93.7357 
0.000103962      3.38073     -91.1864 
0.00106215      3.37073     -91.1899 
0.000795588      3.04164     -91.8841 
0.00301731      2.91556     -93.5396 
0.000110991      3.38095     -91.3559 
0.000962273      3.05133     -91.6902 
0.000642014      3.47197     -83.5505 
0.00119007      3.52240     -87.8849 
0.000683668      3.46204     -83.5319 
3.18554e-05      3.36054     -91.0230 
0.000151713      3.35037     -90.8551 
0.000313979      3.34024     -90.6861 
0.000641339      3.08185     -95.0261 
0.000164217      3.39147     -91.6897 
0.000196337      3.33014     -90.5162 
6.24728e-05      3.06105     -91.4976 
0.00190256      5.08873     -83.9085 
8.70478e-05      4.64105     -86.0463 
0.000501931      4.64037     -86.1695 
0.00128806      5.10069     -93.7095 
0.000295089      4.63039     -86.1612 
7.76706e-05      5.13802     -85.1993 
0.000371880      5.14716     -85.3196 
0.000282335      5.07986     -83.7844 
0.000141659      5.14636     -85.4305 
0.000138100      5.15633     -85.4394 
0.000456203      5.15554     -85.5502 
0.000320376      5.08096     -83.6723 
0.00169689      5.10005     -93.5974 
0.000563064      5.75314     -88.1074 
0.000861781      4.61911     -86.4005 
0.000532612      5.16475     -85.6694 
0.00116123      5.74314     -88.1041 
6.00337e-05      5.07102     -83.6598 
0.000434907      5.07213     -83.5475 
0.000165767      4.68710     -85.1044 
0.000532649      5.17397     -85.7881 
0.000201327      4.68796     -84.9826 
0.000303481      5.73315     -88.1008 
0.000152081      4.60851     -86.5167 
0.000996707      5.18322     -85.9065 
0.000133206      5.65287     -88.1753 
0.000329299      4.60792     -86.6408 
0.000481275      5.07326     -83.4353 
0.000230848      5.64287     -88.1720 
0.000140817      4.68885     -84.8609 
0.000687367      5.63288     -88.1688 
0.000160337      4.68975     -84.7392 
0.00102220      5.62288     -88.1655 
0.000297626      4.59736     -86.7580 
0.000128692      4.68073     -84.6061 
4.33337e-05      5.04287     -91.9319 
0.000168513      5.03254     -91.8219 
0.00143676      5.61289     -88.1623 
0.000358470      5.28458     -92.3859 
0.000326128      5.76313     -88.1107 
0.000123168      5.11067     -93.7022 
0.000198904      5.03224     -91.7081 
6.75139e-05      4.68168     -84.4842 
0.000675654      4.59680     -86.8824 
7.99717e-05      5.18395     -85.7963 
0.000103407      4.70789     -85.0039 
0.000507577      5.19320     -85.9144 
0.00278039      4.77436     -85.5553 
0.000139594      4.67270     -84.3504 
0.000442265      5.12130     -93.8066 
0.000368612      5.76281     -88.2101 
0.000399949      5.03195     -91.5943 
0.000130546      4.66374     -84.2161 
0.00167827      5.60289     -88.1590 
0.000193936      5.13128     -93.7992 
0.000367963      5.07442     -83.3231 
9.93630e-05      4.65481     -84.0812 
0.000181047      4.65586     -83.9588 
0.000361675      5.27502     -92.4990 
0.00109562      5.44127     -86.3120 
0.000134191      5.25914     -86.6207 
0.000597451      5.77281     -88.2132 
0.000125292      4.59627     -87.0069 
0.000353075      4.58628     -87.0003 
0.000528987      5.03168     -91.4805 
0.000131315      4.64698     -83.8232 
0.000703514      5.60258     -88.2612 
0.000265160      5.19392     -85.8044 
0.000740836      5.14193     -93.9030 
0.000148327      5.43129     -86.3052 
3.12163e-05      4.63704     -83.8099 
3.10507e-05      5.26913     -86.6272 
0.000119512      4.63812     -83.6871 
0.000113867      5.17035     -89.3351 
0.000773314      5.02359     -87.8325 
0.000177016      4.58577     -87.1251 
8.45685e-05      5.26972     -86.5186 
8.56813e-05      5.07559     -83.2110 
0.000402325      5.27546     -92.6075 
0.000112097      4.62819     -83.6735 
0.000163611      4.57578     -87.1188 
0.000364427      5.77250     -88.3124 
0.000313926      5.02168     -91.4834 
0.00100879      5.13656     -82.2800 
5.34000e-05      4.62930     -83.5505 
0.000959876      5.78250     -88.3153 
0.000101315      5.27034     -86.4101 
0.000268240      4.61936     -83.5365 
0.000291782      4.51400     -87.5876 
0.000140124      5.20389     -85.8124 
2.52492e-05      4.57529     -87.2439 
0.00125868      5.02143     -91.3694 
0.000100876      5.16024     -89.4448 
6.77919e-05      4.58528     -87.2499 
9.06399e-05      5.27098     -86.3016 
0.000252605      5.78221     -88.4144 
4.44109e-05      4.60943     -83.5225 
4.25164e-05      5.19466     -85.6943 
0.000208005      4.50401     -87.5823 
2.19326e-05      5.28096     -86.3086 
0.000146293      4.61056     -83.3991 
2.12736e-05      5.28501     -92.4943 
4.15293e-05      4.59527     -87.2559 
0.000467388      5.28545     -92.6026 
0.00107579      5.30157     -86.2147 
0.00155487      5.79221     -88.4171 
7.61399e-05      4.60526     -87.2619 
0.000114868      4.60063     -83.3847 
0.000168321      5.20463     -85.7026 
0.000210321      5.29159     -86.2075 
0.000145938      4.49402     -87.5769 
0.000174445      5.14262     -94.0142 
0.000597250      5.79194     -88.5160 
0.000122847      4.59070     -83.3704 
4.39824e-05      4.61525     -87.2678 
0.000618383      4.67386     -87.6702 
0.00222903      4.48403     -87.5715 
4.92891e-05      4.59186     -83.2464 
0.000202057      5.79169     -88.6149 
0.000108235      4.58193     -83.2317 
0.000622059      5.51243     -93.8486 
3.04776e-05      5.16015     -89.5559 
0.000943613      5.45125     -86.3188 
0.000126526      4.57200     -83.2170 
0.000101403      5.17024     -89.4459 
1.44134e-05      4.61478     -87.3918 
1.42841e-05      5.79146     -88.7138 
0.000133802      5.80146     -88.7160 
0.000350800      5.12665     -82.2650 
0.000186091      5.80124     -88.8147 
0.000138040      4.56207     -83.2021 
3.29118e-05      5.20539     -85.5929 
0.000116998      5.02398     -87.7185 
4.82167e-05      4.66387     -87.6652 
0.00140404      5.84021     -89.5095 
7.91997e-05      4.55214     -83.1872 
0.000794965      5.28592     -92.7108 
6.19490e-05      4.65145     -83.3333 
8.22634e-05      4.54221     -83.1723 
2.91247e-05      5.13264     -94.0220 
3.85160e-05      5.18024     -89.4470 
1.92385e-05      4.77514     -85.4356 
4.73326e-05      4.53228     -83.1572 
1.82616e-05      4.66138     -83.3476 
3.58724e-05      4.52236     -83.1421 
8.86056e-06      4.68386     -87.6752 
0.000272525      4.74605     -85.2865 
0.000218907      4.73609     -85.2765 
3.64434e-05      4.75521     -85.4165 
6.86758e-05      5.76251     -88.3095 
6.77655e-05      4.72695     -85.1458 
0.000536458      5.06108     -83.6473 
3.29805e-05      4.71785     -85.0145 
3.09498e-05      4.70877     -84.8827 
0.000315837      5.17119     -93.7699 
6.03308e-05      4.69881     -84.8718 
0.000254284      5.62321     -88.0637 
2.90971e-05      4.61733     -86.7720 
0.000268474      4.60734     -86.7650 
2.78719e-05      4.69068     -84.6176 
0.00171892      4.77359     -85.6749 
7.95877e-05      5.25694     -92.9440 
0.00185873      5.61322     -88.0602 
0.000655966      5.79250     -88.3182 
0.000209247      5.16188     -93.8879 
0.000123586      5.26165     -86.1859 
5.05177e-05      5.26642     -92.8298 
0.000308176      5.15190     -93.8955 
2.53175e-05      5.20617     -85.4831 
0.000304802      5.06219     -83.5348 
0.000322431      5.19700     -85.3645 
0.000174460      5.27641     -92.8244 
2.45459e-05      4.60679     -86.8892 
9.11974e-05      5.27163     -86.1932 
4.35763e-05      4.66476     -84.0939 
6.45413e-05      5.28161     -86.2004 
0.000105405      5.13195     -93.9106 
0.000295876      5.19782     -85.2547 
3.80813e-05      4.64591     -83.9458 
7.21257e-05      4.57421     -84.1025 
0.00128818      4.95035     -86.2937 
6.66118e-05      5.06333     -83.4224 
0.000136624      5.29544     -92.5976 
9.81849e-05      4.56426     -84.0896 
0.000658945      5.15637     -82.3099 
0.000785933      5.02195     -91.5975 
9.26663e-05      4.60626     -87.0134 
0.000138626      5.80169     -88.6173 
7.49150e-05      4.60575     -87.1376 
1.55042e-05      4.61573     -87.1438 
8.33475e-05      5.84031     -89.4114 
5.97904e-05      4.55432     -84.0766 
0.000704378      4.70384     -87.6850 
4.34210e-05      4.65692     -83.8364 
8.24858e-05      4.55536     -83.9515 
0.00116642      5.46123     -86.3255 
3.76444e-05      4.66686     -83.8496 
3.56076e-05      4.69385     -87.6801 
8.67078e-05      4.54542     -83.9382 
0.000141727      5.14647     -82.2950 
2.25360e-05      5.05340     -83.4094 
2.31643e-05      4.54648     -83.8129 
0.000269706      5.31154     -86.2218 
8.63717e-05      4.53654     -83.7993 
0.000105633      4.66794     -83.7276 
0.000304993      5.29590     -92.7057 
1.01053e-05      4.52660     -83.7856 
2.95866e-05      4.52769     -83.6598 
0.000289029      5.84014     -89.6076 
9.62457e-06      4.50894     -83.5054 
9.92654e-05      4.51008     -83.3792 
4.25225e-05      5.05455     -83.2968 
7.29733e-05      4.51124     -83.2531 
7.90607e-06      4.67788     -83.7410 
7.25010e-05      4.71383     -87.6900 
1.77860e-05      4.69260     -84.3745 
0.000222693      5.18117     -93.7626 
6.88664e-05      5.19050     -93.6452 
0.000165096      4.68364     -84.2407 
1.65829e-05      5.20984     -93.5215 
1.62153e-05      5.24802     -93.1677 
3.14716e-05      5.25746     -93.0529 
4.49768e-05      5.26693     -92.9385 
3.89888e-05      4.68466     -84.1190 
7.16404e-05      4.67471     -84.1065 
0.000260565      4.67575     -83.9846 
2.56173e-05      5.80194     -88.5185 
5.86562e-05      4.54335     -84.1890 
0.000142250      5.16628     -82.3247 
0.000308293      5.30543     -92.5928 
7.26724e-05      4.53340     -84.1762 
8.09570e-05      4.53442     -84.0505 
0.000159440      4.67680     -83.8627 
5.31445e-05      5.21775     -85.2728 
6.38682e-05      4.52448     -84.0374 
2.60261e-05      4.51558     -83.8980 
8.05347e-05      4.50672     -83.7581 
1.16665e-05      4.68569     -83.9974 
4.46825e-05      5.28640     -92.8191 
4.51941e-05      4.52345     -84.1634 
4.18272e-05      5.31542     -92.5879 
3.34101e-05      4.51453     -84.0242 
  0.117146    0.0141421      44.9999 
 0.0827272    0.0100000  -0.00104966 
 0.0358055   0.00999997      90.0000 
0.00999094    0.0500000     -90.0000 
 0.0434897    0.0600002     -90.0000 
 0.0162288    0.0199999      90.0000 
 0.0387830    0.0299999      90.0000 
 0.0330935    0.0707108     -98.1301 
 0.0223346    0.0806227     -97.1250 
 0.0647011    0.0399999      90.0000 
 0.0287179    0.0824622     -104.036 
 0.0984256    0.0921955     -102.529 
  0.125625    0.0499998      90.0000 
  0.212302     0.104403     -106.699 
  0.223627    0.0599998      90.0000 
  0.149598     0.114018     -105.255 
  0.147654    0.0707106      98.1301 
0.00700184     0.992472     -102.216 
 0.0438759      1.00225     -102.095 
 0.0517137     0.994636     -102.779 
0.00937118     0.101980     -101.310 
 0.0149151     0.117047     -109.983 
 0.0283738    0.0583095     -59.0363 
 0.0168299     0.130000     -112.620 
  0.107443    0.0565686     -45.0000 
 0.0110148     0.126491     -108.435 
0.00271574      1.05721     -100.353 
 0.0105278      1.06532     -99.7276 
0.00530311     0.984886     -102.907 
 0.0871231    0.0824621      104.036 
 0.0372845     0.139284     -111.037 
0.00773718     0.975141     -103.039 
 0.0100609      1.07517     -99.6375 
0.00253266     0.977446     -103.610 
 0.0194122     0.967729     -103.749 
0.00966134      1.08342     -99.0276 
 0.0160444      1.08503     -99.5491 
 0.0222114     0.152316     -113.199 
 0.0202508     0.958019     -103.891 
0.00656950      1.09330     -98.9454 
 0.0207780     0.955667     -103.309 
 0.0433139      1.09490     -99.4623 
 0.0364123     0.148661     -109.654 
 0.0385122     0.945939     -103.449 
 0.0171185     0.161555     -111.801 
 0.0521828    0.0806225      97.1250 
 0.0234710      1.09659     -99.9777 
0.00653193      1.10476     -99.3771 
 0.0296829     0.943663     -102.858 
 0.0291945     0.158114     -108.435 
0.00154184      1.07280     -101.834 
0.00305383      1.11463     -99.2933 
0.00446641      1.06513     -102.470 
0.00588948      1.12294     -98.7074 
 0.0168358    0.0500000     -53.1301 
 0.0112253     0.933917     -102.995 
0.00426963      1.05537     -102.588 
 0.0122668      1.13283     -98.6308 
0.00410608    0.0921952      102.529 
 0.0224038      1.05759     -103.116 
 0.0200840     0.931719     -102.395 
 0.0247955     0.170880     -110.556 
 0.0155045      1.14272     -98.5556 
 0.0312956    0.0905536      96.3402 
 0.0156064     0.921955     -102.529 
 0.0287299    0.0538517     -68.1986 
 0.0109698      1.04786     -103.241 
 0.0206543      1.15261     -98.4816 
0.00212085      1.04561     -102.707 
0.00409116     0.167631     -107.354 
0.00207421     0.994636     -99.8411 
0.00882760     0.912195     -102.665 
0.00958100     0.180278     -109.440 
0.00487545     0.992975     -99.2726 
 0.0136993    0.0509902     -78.6901 
0.00382725      1.05991     -103.643 
0.00190741    0.0608278     -80.5377 
0.000937930      1.05262     -104.300 
0.00451868     0.991413     -98.7022 
0.00789642     0.902441     -102.804 
 0.0233901    0.0899997      90.0000 
0.00356917      1.05513     -104.826 
0.00771835     0.189737     -108.435 
0.00343342      1.00130     -98.6156 
0.00975562      1.15412     -98.9726 
0.00335625      1.05773     -105.350 
0.00935891     0.999850     -98.0491 
0.00708573     0.892693     -102.947 
0.00548453     0.202485     -110.225 
0.00159319      1.06042     -105.871 
0.00945242      1.16250     -98.4089 
0.00157250      1.05361     -106.543 
0.00511861      1.05650     -107.063 
0.00286706     0.215407     -111.801 
0.00291153     0.211896     -109.290 
0.00146753     0.890506     -102.319 
0.00353618     0.998499     -97.4809 
 0.0100466    0.0608278     -99.4623 
0.000720585     0.882950     -103.092 
 0.0126893      1.00841     -97.4069 
0.00672330     0.880738     -102.458 
 0.0114384    0.0905536      83.6598 
0.000690130      1.04995     -107.745 
0.00477525     0.224722     -110.854 
0.00331407      1.05304     -108.263 
0.00634683      1.16400     -98.8959 
0.00934246    0.0728012     -105.945 
0.00758096     0.237697     -112.249 
0.00367948      1.04676     -108.954 
0.00297987    0.0999999      90.0000 
0.00595849     0.870977     -102.600 
0.00117999      1.17098     -97.8533 
0.00116862      1.17239     -98.3374 
0.00115793      1.04062     -109.654 
0.00451913    0.0761579     -113.199 
0.00170777     0.250799     -113.499 
 0.0129248      1.00717     -96.8428 
0.00113888      1.17958     -97.3058 
0.000567360      1.05005     -109.470 
0.00977970     0.100499      84.2894 
0.000560423      1.09882     -103.151 
0.00273498      1.18714     -96.2869 
0.00316932     0.260000     -112.620 
0.00218092      1.03465     -110.362 
0.00425693     0.861220     -102.745 
0.000553244     0.170294     -86.6335 
0.000548870    0.0632457     -108.435 
0.000543838      1.11611     -102.417 
0.000539596     0.180278     -93.1798 
0.00106560    0.0943399     -122.005 
0.000530580      1.10856     -103.033 
0.00455021      1.19419     -94.8035 
0.00590533    0.0412311     -75.9638 
0.00255056      1.02883     -111.077 
0.00245936     0.180000     -90.0000 
0.00103943     0.269258     -111.801 
0.00353173     0.114018     -127.875 
0.000519792      1.12588     -102.308 
0.00198030     0.282312     -112.932 
0.00149946      1.11830     -102.918 
0.00385606     0.851470     -102.894 
0.000500262     0.291548     -112.166 
0.000494805     0.171172     -83.2902 
0.000979585    0.0360556     -56.3100 
0.000489945     0.297321     -109.654 
0.00144252      1.02318     -111.801 
0.000483328     0.306757     -109.026 
0.000479179      1.12805     -102.804 
0.000948224     0.322800     -106.189 
0.00698737      1.20266     -93.8141 
0.00444291     0.134536     -131.987 
0.000929890     0.194165     -101.889 
0.00138206      1.12058     -103.416 
0.00357602      1.01390     -112.011 
0.00360643     0.110000      90.0000 
0.00225642     0.332416     -105.709 
 0.0103016      1.00603     -96.2773 
0.00308367     0.841724     -103.046 
0.000455805     0.120416     -131.634 
0.00855547    0.0447214     -63.4350 
0.000846355     0.180278     -86.8202 
0.00130288      1.13031     -103.299 
0.000860795     0.208806     -106.699 
0.00170708     0.339559     -103.627 
 0.0116599     0.110454      84.8056 
0.00418528     0.181108     -83.6598 
0.00239438      1.20337     -94.2892 
0.00284380      1.00464     -112.225 
0.000834939     0.831986     -103.201 
0.000829590      1.12294     -103.912 
0.00230920     0.273130     -113.749 
0.00594666     0.349285     -103.241 
0.000409732     0.829759     -102.529 
0.00380330     0.141421     -135.000 
0.00682848     0.820000     -102.680 
0.00117711      1.12539     -104.407 
0.000762181      1.08167     -109.440 
0.00223656     0.991615     -111.909 
0.000752092      1.20416     -94.7636 
0.00397293    0.0424265     -45.0001 
0.000373764      1.20150     -92.8624 
0.000371371      1.13265     -103.791 
0.00298109     0.810247     -102.836 
0.00244065     0.996092     -96.3402 
0.000366930      1.20503     -95.2375 
0.000364191      1.12792     -104.899 
0.000718806      1.20067     -91.9092 
0.000711971      1.20599     -95.7106 
0.00138548      1.09110     -109.265 
0.00240785     0.978622     -111.584 
0.000700090      1.13508     -104.281 
0.00645702     0.182483     -80.5377 
0.00103093      1.19004     -90.4815 
0.00659125     0.148661     -137.726 
0.00454611      1.00499     -95.7106 
0.00291125     0.286357     -114.775 
0.000346546      1.20702     -96.1829 
0.00321530     0.800500     -102.995 
0.00132806      1.21594     -95.6637 
0.00157637      1.14477     -104.158 
0.000658298      1.19000     -90.0000 
0.00218749      1.09444     -109.759 
0.00423846     0.965661     -111.251 
0.00379653     0.359026     -102.875 
0.00718383     0.120416      85.2364 
0.000948166      1.18004     -89.5145 
0.00184091      1.21696     -96.1322 
0.000583752     0.914822     -105.859 
0.00110410      1.18017     -89.0290 
0.000594423     0.177200     -73.6105 
0.00956419    0.0500001     -36.8700 
0.000303608     0.781025     -103.325 
0.00117498     0.295466     -113.962 
0.000595866     0.790759     -103.158 
0.00171061      1.17038     -88.5312 
0.00199205     0.995038     -95.7679 
0.00141907      1.21807     -96.5999 
0.00272025      1.09786     -110.251 
0.000289971      1.14018     -105.255 
0.000288975     0.778781     -102.609 
0.000573564     0.945780     -109.776 
0.000838829     0.788543     -102.450 
0.00363528     0.299667     -115.710 
0.00350532      1.00404     -95.1428 
0.00135426     0.180278     -70.5600 
0.00134831      1.14726     -104.642 
0.000447511     0.162788     -137.490 
0.00132834      1.15070     -88.0079 
0.000277721     0.769025     -102.771 
0.00885610     0.156205     -140.194 
0.000274089     0.749533     -103.109 
0.00106119     0.949210     -110.344 
0.00225796      1.22691     -96.0823 
0.000267187     0.798311     -102.295 
0.000523204     0.688840     -103.431 
0.00282881     0.536004     -81.4164 
0.000502113     0.899889     -104.808 
0.000262779     0.698570     -103.241 
0.000262666     0.178045     -51.8428 
0.00101089     0.969330     -111.801 
0.000518502     0.808084     -102.144 
0.00171019     0.952733     -110.908 
0.00485567     0.121655      80.5377 
0.00187806      1.14285     -105.739 
0.000494324      1.13071     -87.9727 
0.000960741     0.176918     -42.7094 
0.000976444     0.679117     -103.627 
0.000249411      1.10725     -110.072 
0.000248852      1.22589     -95.6176 
0.00111245     0.184391     -77.4712 
0.00270782     0.366743     -101.004 
0.00249655      1.10136     -110.739 
0.000708999      1.19017     -89.0371 
0.000238953      1.12071     -87.9546 
0.000464716     0.973088     -112.348 
0.000916089     0.667083     -102.995 
0.00112509      1.11072     -87.9362 
0.00218332     0.304138     -117.408 
0.00428821     0.545894     -81.5730 
0.00176654     0.956347     -111.468 
0.00211054      1.20004     -89.5225 
0.00107811      1.23584     -95.5722 
0.00126565     0.184391     -40.6013 
0.00149072      1.01242     -93.9647 
0.00167834     0.657343     -103.191 
0.00202606     0.960052     -112.023 
0.00177491      1.14560     -106.220 
0.00139235      1.10073     -87.9174 
0.00498176     0.131529      81.2538 
0.00176007      1.10494     -111.224 
0.000777546      1.23685     -96.0333 
0.00151698     0.308869     -119.055 
0.00151219      1.02176     -93.3665 
0.00333735    0.0447214     -26.5652 
0.000197992     0.647611     -103.392 
0.00202342     0.645368     -102.529 
0.000746208      1.20017     -89.0452 
0.00109567     0.186011     -36.2538 
0.00390789     0.817863     -101.997 
0.00236273     0.963847     -112.574 
0.000715010      1.09041     -88.4235 
0.000551786      1.11072     -110.556 
0.00107332      1.21004     -89.5265 
0.00104334      1.24680     -95.9850 
0.000521295      1.14180     -107.324 
0.00148456      1.11427     -111.038 
0.00256256     0.554437     -82.7468 
0.00190342      1.03078     -92.2240 
0.00132561     0.313847     -120.651 
0.00235840     0.368782     -102.529 
0.000673913     0.643273     -101.659 
0.00261816      1.21017     -89.0530 
0.000170547      1.02122     -92.8064 
0.00299406     0.967729     -113.121 
0.00155470     0.194165     -34.5085 
0.000937137      1.10860     -111.705 
0.000654745      1.09073     -87.8983 
0.00110322      1.14843     -106.699 
0.00111163     0.633483     -101.842 
0.00345883     0.133417      77.0054 
0.000908886      1.25782     -96.3905 
0.00231223    0.0360556     -33.6902 
0.00550048     0.170294     -139.764 
0.00167960      1.08042     -88.4089 
0.000874248     0.319061     -122.196 
0.00159281     0.631506     -100.954 
0.000428095      1.14481     -107.802 
0.00298117     0.971700     -113.663 
0.000558398      1.11790     -111.516 
0.00181006      1.11234     -112.184 
0.00162456      1.15135     -107.176 
0.000804498      1.26775     -96.3402 
0.00116911      1.04019     -91.1017 
0.00140760     0.202485     -32.9052 
0.00192497      1.21037     -88.5797 
0.000896983     0.609016     -119.511 
0.000533527     0.563205     -83.8845 
0.00353222    0.0412311     -14.0364 
0.000523433     0.324500     -123.690 
0.00116618     0.629683     -100.061 
0.00114727     0.815843     -101.310 
0.000134323     0.327567     -121.264 
0.000129141      1.03044     -91.6683 
0.000252839     0.590762     -87.0892 
0.00260678     0.136015      72.8973 
0.000125523      1.07019     -88.9292 
0.000605318      1.27769     -96.2907 
0.00355806     0.975756     -114.201 
0.00105436     0.332866     -122.735 
0.000123274     0.376564     -100.713 
0.000240580      1.06005     -89.4595 
0.00155219     0.628013     -99.1623 
0.000572522     0.600333     -88.0908 
0.00161764     0.378550     -102.200 
0.000678440      1.08074     -87.8789 
0.000569449     0.813941     -100.620 
0.00334253     0.174643     -76.7595 
0.00170906      1.11615     -112.659 
0.00370351      1.22037     -88.5914 
0.00169022     0.605392     -120.801 
0.00134412     0.210950     -31.4296 
0.000655362      1.28876     -96.6839 
0.00123178      1.05000     -90.0000 
0.00117214      1.07042     -88.3940 
0.000111078      1.12161     -111.991 
0.000425072      1.14791     -108.277 
0.00157325      1.15434     -107.650 
0.000215261     0.822010     -99.8061 
0.00101950     0.338379     -124.160 
0.000514738     0.962549     -113.902 
0.000399979     0.610000     -90.0000 
0.000104952     0.812158     -99.9262 
0.00103107     0.626498     -98.2594 
0.000405239     0.820366     -99.1179 
0.00397971     0.966644     -114.444 
0.000770590      1.29869     -96.6325 
0.00102304    0.0316228     -18.4352 
0.00223323     0.139284      68.9625 
0.000613340     0.610082     -89.0608 
0.000565065     0.818841     -98.4270 
0.00182442      1.12004     -113.131 
0.00156673     0.178045     -141.843 
0.00105823     0.344093     -125.538 
0.00195345      1.06019     -88.9191 
0.000754372     0.219545     -30.0686 
0.000602759     0.817435     -97.7336 
0.000512673      1.30863     -96.5819 
0.000174204    0.0600000  -0.000174943 
0.000924425     0.625140     -97.3524 
0.000412238    0.0223608     -63.4351 
0.000165975    0.0806226      7.12499 
0.00124291      1.23065     -88.1374 
8.30992e-05     0.214709     -27.7586 
0.000397862     0.816150     -97.0379 
0.00169497     0.600333     -119.982 
0.000527564     0.380789     -103.671 
0.00111710     0.350000     -126.870 
0.000953391      1.31746     -96.1001 
8.04476e-05    0.0921954      12.5288 
0.00106350    0.0200001     -90.0000 
0.000535154      1.15109     -108.750 
0.00154960     0.223607     -26.5651 
0.000381688     0.101980      11.3099 
0.00183377     0.143178      65.2249 
0.000597591     0.186011     -143.746 
0.000814782     0.620000     -90.0000 
0.00161832      1.12401     -113.600 
0.000446241     0.823893     -95.5722 
0.00113560     0.623939     -96.4416 
0.00285192      1.26321     -85.9144 
0.00196013     0.970824     -114.981 
0.00216195      1.15741     -108.122 
0.000898169      1.08116     -87.3493 
7.24850e-05     0.537587     -80.3625 
0.000213516     0.114018      15.2551 
0.000778918     0.822982     -94.8793 
7.08324e-05     0.905539     -83.6598 
0.000278312     0.200000     -143.130 
0.000509555     0.388330     -101.889 
0.00140758      1.07075     -87.8591 
0.00347311     0.895601     -83.5892 
0.000462959     0.123693      14.0362 
0.000699875     0.527731     -80.1807 
0.000582174     0.356090     -128.157 
6.75681e-05     0.194165     -145.491 
0.00105751    0.0360556     -123.690 
0.000693024     0.208087     -144.782 
0.000562076      1.32740     -96.0542 
6.29268e-05     0.622897     -95.5275 
0.000589573     0.133417      12.9946 
0.000535508     0.358050     -125.910 
0.000838490    0.0223608     -116.565 
0.000391894     0.630317     -88.1817 
0.000612093     0.216333     -146.310 
0.000284087      1.33634     -95.5826 
0.00178353      1.12805     -114.066 
0.00190718     0.147648      61.6992 
0.000521899     0.822192     -94.1849 
0.00146003     0.364006     -127.185 
0.000449074      1.22016     -89.0608 
0.000397123     0.390513     -103.325 
0.000160065     0.143178      12.0947 
0.000265777      1.34536     -95.1173 
0.000710094     0.228254     -28.8108 
0.000361424     0.145602      15.9453 
0.00131128      1.08167     -86.8202 
0.00100168     0.167631     -72.6460 
0.000545190     0.224722     -147.724 
0.000253114     0.641950     -85.5328 
0.000472422      1.07117     -87.3246 
0.00103846     0.595399     -119.148 
0.000864719      1.35447     -94.6583 
0.00114465     0.232594     -25.4634 
5.00790e-05      1.27012     -97.2369 
0.000361015      1.26020     -97.2942 
0.000144756     0.152971      11.3099 
0.000280407     0.653759     -83.8534 
0.000451615     0.155242      14.9314 
4.74560e-05     0.774919     -107.266 
4.70949e-05     0.764003     -127.020 
0.000701322     0.233238     -149.036 
0.00112666     0.772010     -126.573 
0.00104882      1.15434     -109.220 
0.000277731    0.0424265     -135.000 
8.87696e-05     0.777946     -107.969 
0.000205056     0.821523     -93.4893 
0.000902188     0.666108     -82.2348 
0.000175459     0.370135     -128.418 
0.000978368     0.372022     -126.254 
0.000265546      1.22004     -89.5304 
0.000557985     0.162788      10.6196 
0.000568818     0.529528     -79.1145 
0.000159895     0.781089     -108.667 
0.000646257     0.402244     -145.125 
0.000633150      1.25028     -97.3524 
0.000937766      1.36444     -94.6242 
0.00104971     0.241868     -150.255 
0.00115075      1.08227     -86.2916 
0.000108274     0.784347     -109.359 
7.35074e-05     0.164924      14.0362 
0.000721964     0.172627      10.0079 
0.000623633     0.374433     -124.114 
0.000160597     0.820975     -92.7927 
0.000482163      1.13719     -113.860 
0.000294208     0.590593     -118.301 
9.94834e-05    0.0282844     -135.000 
0.000483155     0.152643      58.3925 
6.69573e-05     0.787718     -110.045 
0.000413125     0.677422     -81.5111 
3.38239e-05     0.170880     -69.4440 
0.000346015     0.518556     -129.523 
0.000156182      1.16056     -108.591 
0.000185967     0.979490     -117.350 
0.000214285     0.250599     -151.390 
0.000182369      1.26254     -86.3670 
3.07464e-05      1.22000     -90.0000 
0.00373001      1.95576     -85.6013 
0.000747462      1.63196     -87.1902 
0.000422981      1.64247     -86.8589 
0.000434533      1.64195     -87.2073 
0.000152051      1.57277     -82.6942 
0.000144291      1.56285     -82.6476 
0.00105406      1.55293     -82.6004 
0.000504439      1.59050     -91.4411 
0.000243779      1.65245     -86.8779 
0.000353878      1.66301     -86.5526 
0.00208648      5.65447     -77.0206 
0.00171361      4.44491     -77.5271 
0.00257111      4.48849     -72.8973 
0.00163376     0.394588     -98.7462 
0.00276542      5.65672     -76.9219 
5.02077e-05      3.92020     -98.2128 
0.00223238      3.91879     -98.0681 
0.00210580      4.43086     -77.7517 
8.99263e-05      4.22682     -86.7450 
0.00187102      4.47599     -72.9820 
0.00166929      4.23738     -86.6177 
0.000237445     0.388330     -124.509 
3.86479e-05     0.403113     -97.1250 
0.00185075     0.401995     -95.7106 
0.000546157      4.23266     -92.0309 
0.000245623     0.386005     -126.573 
0.00174826      4.44276     -77.6530 
3.26653e-05     0.392046     -127.747 
0.000241437     0.390513     -129.806 
0.00141649      4.24265     -92.0261 
0.000372086     0.382884     -130.764 
2.69038e-05      5.64248     -77.0967 
0.000368176      5.64472     -76.9978 
0.000457841      5.69129     -78.6506 
0.00103531      3.91740     -97.9233 
2.21509e-05      5.63051     -77.1732 
2.19667e-05     0.408044     -126.027 
0.000208967      5.60223     -77.5267 
0.000368571     0.401123     -94.2892 
0.000164184      4.24796     -86.4910 
0.000122341     0.375367     -131.760 
8.11236e-05     0.430116     -125.538 
0.000819523     0.550091     -117.031 
3.97655e-05      4.42875     -77.8781 
3.91666e-05      5.58818     -77.7047 
0.000214068     0.367967     -132.797 
9.38985e-05      4.23798     -86.4827 
0.00103030      4.24859     -86.3564 
0.000368140     0.360694     -133.877 
5.64078e-05     0.393192     -97.3058 
5.07747e-05     0.385876     -121.218 
4.80054e-05      5.59795     -77.7265 
4.69299e-05     0.391152     -122.471 
0.000337952      5.58395     -77.9052 
0.000271669     0.353554     -135.000 
2.28209e-05     0.394462     -120.466 
0.000107839     0.399625     -121.701 
5.99414e-05     0.404969     -122.905 
3.85028e-05     0.438292     -124.778 
1.92939e-05      5.65899     -76.8233 
0.000447516      1.42088     -87.9834 
0.000108751      1.52738     -84.3641 
0.000257823      1.53734     -84.4007 
0.000206152      1.41057     -88.3750 
0.000285962      1.54729     -84.4368 
0.000305310      1.55824     -84.1065 
8.21348e-05      1.55724     -84.4725 
0.000552335      1.56720     -84.5077 
3.89633e-05      1.38015     -90.8303 
7.51297e-05      1.37091     -92.0902 
7.20696e-05      1.36235     -93.3665 
0.000103074      1.35370     -94.2364 
0.00122294      1.57715     -84.5424 
6.40903e-05      1.37525     -84.9942 
0.000151501      1.37615     -84.5794 
0.000234450      1.34629     -95.5412 
2.89257e-05      1.37713     -84.1652 
2.84987e-05      1.36719     -84.1226 
0.000213930      1.36825     -83.7061 
0.000786475      1.34729     -95.9645 
0.000115636      1.36938     -83.2902 
2.46765e-05      1.35945     -83.2409 
4.83268e-05      1.36066     -82.8228 
0.000114407      1.30817     -78.0888 
0.000326436      1.29838     -77.9977 
0.000102004      1.37931     -83.3387 
3.95297e-05      1.56818     -84.1440 
5.37226e-05      1.38924     -83.3865 
4.91872e-05      1.28860     -77.9052 
3.26549e-05      1.58619     -84.9364 
0.00115835      1.49967     -155.999 
-0.00101019      5.93896     -111.121 
0.000847458      2.55362     -10.6059 
-0.000720144      2.55885     -83.0416 
0.00106656     0.975141      84.1140 
0.000552377      2.49618     -67.1329 
-0.00120907      3.86281     -118.954 
0.000728205      2.56345     -10.5647 
-0.000177202      9.05862     -121.181 
0.00190928      2.50008     -66.9218 
-0.000486224      4.35137     -161.232 
-0.000226561      9.06380     -121.235 
0.000320131      1.49466     -155.493 
-0.000369614      9.06045     -121.322 
-0.00126570      2.56008     -82.8195 
-0.00137647      1.93329     -155.556 
0.000356422     0.872353     -64.9038 
0.00161359      2.27702     -38.5812 
-0.000780677      5.94257     -111.211 
0.000708121      2.53160     -2.03733 
0.00129802      4.04191      4.39870 
-0.00123373      8.06207     -106.502 
-0.000572963      2.10836     -133.078 
-0.000208139     0.500000      90.0000 
-0.000995546      2.90451     -84.2698 
5.21973e-05      4.05188      4.38786 
-0.000533769      4.38266     -98.0007 
0.000295031      4.39241     -18.3112 
0.000335147      3.99546     -54.6790 
-0.000430838      2.10889     -132.694 
-0.000665247      3.53617     -41.2164 
-0.000602241     0.500100      88.8542 
0.000348730     0.955091      72.3239 
-0.000289582      9.06565     -121.376 
0.000327352      3.42843     -142.228 
9.74302e-05      2.09831      54.1132 
0.000192331      2.23647     -94.3594 
0.000795565     0.974166      84.6991 
-0.000461094      6.19229     -40.4809 
-0.000527206      1.29711      27.5528 
0.000229414      1.50376     -155.651 
9.68478e-05      5.07293      12.6391 
-0.000143521      4.77624      157.731 
0.000229156      4.40191     -18.2703 
-0.00115722      8.50379     -124.120 
0.000309261      4.29131      18.0550 
0.000138737      1.20221     -148.955 
-0.000573186      7.74065     -89.2598 
0.00109595      5.08269      12.6144 
-0.000268025      3.20975     -145.023 
0.000799991     0.859069     -65.2249 
-0.000972604      5.00234     -119.589 
0.000221636     0.509902     -154.440 
-0.000705788      6.69618     -111.738 
0.000917152      4.77671     -16.9175 
-0.000373159      6.91177     -98.8218 
-0.000450927      2.91770     -14.0839 
-0.000521031      4.14779     -80.4241 
-0.00181754      4.77246      157.842 
0.000678336      4.67010     -179.632 
-0.000595763      9.06755     -121.516 
0.000126103      2.10419      53.8925 
-0.000513760      8.49819     -124.064 
0.000126962      2.22650     -94.3790 
0.000752752     0.500899     -153.946 
-0.000959210      2.37287     -60.7343 
-0.00111426      6.41788     -56.3099 
-0.000474222      3.85701     -22.2428 
8.93006e-05      1.27581      111.134 
-0.00135804      4.38983     -97.7240 
-0.000131772      6.25066     -68.6071 
0.000298418      3.65121     -74.5935 
0.000654823      2.90837      165.056 
0.000601047      5.47113     -139.819 
0.000346602      1.20569     -149.607 
-0.000334125      5.94619     -111.300 
-0.000535131      4.37759     -141.585 
-4.39010e-05      6.37389     -43.2835 
-0.00176835     0.984124      5.24712 
0.000662232      1.27224      110.714 
0.000390855      1.56605     -143.569 
-0.000725784      2.10212     -132.494 
0.000127976      4.14744     -13.6677 
-4.30587e-05      7.80769     -108.597 
0.000314743      2.56531     -10.7843 
8.42904e-05      3.43634     -142.330 
0.000646663      7.15973     -71.0083 
-0.000124315      7.57921     -95.8309 
-0.000629558      6.36662     -43.3453 
8.34311e-05      4.41141     -18.2296 
-0.00119920      4.99741     -119.489 
-0.000385880      6.18581     -40.4104 
-0.000259795      2.74186     -117.593 
0.000837193      2.44364     -74.0868 
-0.000121637      6.25432     -68.5218 
-0.000245732      3.98001     -126.726 
-0.000281809      2.23043     -140.458 
0.000315834      4.48201     -146.097 
-0.000115285      7.80451     -108.528 
0.000158859      4.13537     -13.5658 
0.000607846      8.01888     -86.0671 
0.00138115      6.75992     -83.0327 
0.00115664      7.28605     -81.7142 
0.000487508      4.12769      15.8882 
-0.000120243      5.48140     -30.3543 
0.000443202      3.43817     -142.563 
0.000463553      3.63891     -74.7035 
-0.000448902      7.74052     -89.3338 
-0.000585545      3.86674     -118.752 
-7.95200e-05     0.510000      90.0000 
0.00104037      4.38883     -105.461 
-0.000157213      1.93507     -4.14891 
0.000155077      4.42090     -18.1890 
-0.000600704      2.78729     -68.3131 
0.00102809      4.28180      18.0964 
-0.00183714      3.98600     -126.841 
7.85039e-05      3.28938      146.407 
-0.000145960      5.56389     -34.2327 
0.000220202      6.76114     -82.9486 
0.000263764      4.61806      23.3452 
-0.00130366      8.06492     -106.570 
-0.000483573      7.37055     -70.0899 
-0.000511569      2.10801     -145.631 
-0.000180315      7.57821     -95.7557 
0.000380838      4.88803      3.28386 
-0.000447093      2.67989     -155.061 
-0.000680944      5.47278     -30.4072 
-0.000434866      2.23182     -140.819 
3.83612e-05      3.63629     -74.8554 
0.00134095      1.53310      74.8760 
-0.000110492     0.510098      91.1233 
0.000209986      3.73666     -32.5418 
0.000614373      2.53126     -1.81112 
-0.000340394      2.80402     -68.0089 
0.00168449      3.29771      146.503 
0.000348941     0.973293      85.2852 
-0.00102609      2.86398      169.946 
-0.000348174      1.94579     -4.42129 
0.000268254      3.84294     -151.901 
0.000354460      4.14509     -13.5334 
0.000343198      3.75666     -26.9061 
0.000248786      4.42143     -121.497 
0.000124022      3.06229      23.8865 
-0.000310886      1.29294      28.1507 
-0.000235198      1.64347      7.34122 
-0.000276217      6.54551     -105.416 
0.00100025      4.49031     -146.168 
0.000207413      4.36660      176.849 
-0.000209592      5.72158     -139.181 
-3.60935e-05      4.60298     -39.5346 
0.000673553      3.91644     -78.6614 
-0.000390021      6.91861     -98.6454 
-0.000230201      3.54370     -41.1099 
0.000208229      4.43041     -18.1487 
-6.99043e-05      6.26729     -68.4702 
-0.000134948      3.15839      175.824 
-0.000462992      4.65808     -105.439 
0.000540842      4.61286      23.5085 
3.49276e-05      2.22576     -94.1223 
-0.000477010      1.92837     -155.163 
-0.000575650      7.38336     -70.0434 
-0.000585167      6.17820     -40.4705 
0.000347103      3.59473     -119.132 
-0.000595755      2.37777     -60.5241 
-0.000680754      5.75296     -119.238 
-0.000531671      4.04554     -43.7982 
-0.000163898      6.69248     -111.658 
-0.000254853      6.55250     -105.309 
-0.000567243      7.73041     -89.4071 
-0.000454586      5.94983     -111.390 
-0.000162330      4.14614     -80.5604 
-0.000242539      7.59569     -101.621 
0.000476268      1.56013     -143.865 
-0.000126520      5.03907     -137.413 
-0.000655407      2.23958     -140.981 
-3.35879e-05      7.80134     -108.458 
0.000221140      3.72823     -32.6244 
3.33205e-05      1.88664     -11.3099 
0.000221273      2.44641     -73.8616 
9.81562e-05      2.89871      165.005 
-6.51121e-05     0.510392      92.2457 
9.77941e-05      3.44611     -142.665 
-3.30919e-05      7.59368     -101.547 
-0.000781675      6.41234     -56.3843 
-0.000683446      3.05644     -73.4624 
-9.70659e-05      4.37924     -141.769 
0.000208467      4.41621     -121.387 
0.000187360      1.89644     -11.2507 
-0.000138774      5.57216     -34.1749 
-3.25907e-05      5.72915     -139.247 
-0.000243376      2.92139      9.65578 
-0.000401137     0.632535      129.226 
-0.000891674      2.39827      53.9902 
-0.000279300      1.17644      35.3112 
-0.000189434      3.66564     -111.947 
0.000652370      4.35662      176.842 
0.000374427      1.54987     -165.426 
0.00112490      4.36606     -119.501 
-0.000590401      4.26677     -109.582 
-0.000331258      6.34521     -43.4035 
-3.19926e-05      8.23299     -107.313 
-0.000115034      6.27097     -68.3852 
0.000322838      2.48697     -67.0434 
0.000828685      2.91096      164.866 
-9.34128e-05      5.73781     -139.453 
3.17686e-05      4.36115     -119.386 
-6.19793e-05      4.61069     -39.4555 
3.16204e-05      3.44803     -142.897 
0.000151115      7.75738     -79.6027 
0.00110979      1.37615     -95.4206 
0.00121010      1.26874      110.292 
0.000536090      2.48308     -67.2559 
0.000152339      5.09245      12.5898 
-0.000260964      5.25137     -156.071 
0.000702704      8.01958     -85.9958 
-0.000120857      2.74155     -117.126 
0.000957884      2.28484     -38.4248 
0.000950413      3.45601     -142.997 
-0.000575559      4.37138     -141.688 
3.09680e-05      6.78494     -86.1972 
-0.000729503      8.23002     -107.246 
-0.000266125      3.87930     -22.2677 
-3.07920e-05      1.95576     -4.39871 
0.000178682      4.00766      6.73489 
-0.000177891      6.92012     -89.6688 
-0.000234955      3.66939     -112.091 
-0.000119074      2.16086      138.565 
-0.000362973      2.56135     -82.5975 
0.000279012      5.21162     -34.2084 
-0.000147487      6.55074     -97.8085 
-0.000116580      5.74542     -139.518 
-5.92505e-05      7.58521     -95.5227 
-0.000236455      1.65215      6.95295 
5.84351e-05      2.55548     -10.8263 
-0.000264772      4.13465     -80.6744 
8.78062e-05      1.14935     -116.342 
-0.000804114      1.18461      35.0316 
-0.000107995      4.61842     -39.3767 
0.000641695      5.82810     -114.102 
-5.83763e-05      1.10653     -96.2258 
-0.000626126     0.618466      129.094 
5.79023e-05      8.11449     -69.2869 
-0.000163658      1.31488      27.1497 
-0.000863289      1.91930     -155.037 
0.000382457      2.20771     -19.5840 
-0.000166888      5.46416     -30.4602 
0.000442708      5.10004      12.4557 
0.000160522      3.83193     -159.531 
-0.00136609      6.55211     -97.8951 
-2.87932e-05      3.16836      175.837 
-0.000285226      2.14674      138.588 
-0.000213236      6.54660     -109.265 
-0.000109234      1.18224      35.7067 
0.000424496      3.59862     -118.915 
-0.000719345      1.09773     -96.8013 
-0.000164393      6.54286     -105.332 
0.000140134      4.01759      6.71817 
2.85208e-05      6.77430     -86.2759 
0.000134185      4.11807      15.9263 
-0.000346597      2.73271     -64.1851 
0.000347948      5.82719     -114.322 
-0.000304411      1.50083     -124.961 
-0.000162315      1.17686     -49.1347 
5.64472e-05      1.14965     -115.228 
0.000319433      8.09808     -69.3943 
-0.000972884      6.93026     -89.5039 
-0.000123324      7.59421     -95.4403 
-0.000134895      2.91153      9.68879 
-0.000326805      7.37995     -70.1164 
-0.000149803      4.38406     -98.1301 
-2.80032e-05      5.14752     -9.95640 
-8.14207e-05      6.92553     -98.4694 
2.79378e-05      4.60369      23.5581 
-0.000109445      3.67316     -112.236 
-0.000242917      6.33107     -43.4000 
-0.000151909      2.73701     -116.940 
-0.000723150      3.13547      148.033 
2.77254e-05      7.15649     -71.0840 
0.000373460      1.14543     -114.775 
0.000385791      3.30220     -127.495 
5.51091e-05      7.63018     -75.8909 
-0.000234510      5.76181     -139.787 
0.000291370      4.59854      23.7221 
0.000236157      7.55050     -131.671 
-5.35636e-05      2.94109      162.181 
-0.000366362      2.92959      9.43017 
-0.000876805      6.63464     -47.9935 
0.000694362      3.91842     -78.5180 
-0.000364704      1.38957      34.1475 
0.000156851      2.57701     -10.9611 
-0.000374880      4.05968     -43.8024 
-0.00107038      2.90353     -84.4661 
0.000356109      7.61321     -76.0915 
0.000139717      4.00884      6.87683 
-0.000510859      3.99200     -126.956 
-5.26160e-05      5.03115     -137.175 
0.000130449      4.02752      6.70153 
-0.000198571      2.85414      169.911 
-0.000225224      3.67696     -112.380 
-0.000102405      5.74808     -119.151 
0.000389753      6.84503     -44.5265 
-0.000397720      6.32381     -43.4622 
-0.000292874      8.06778     -106.638 
7.57614e-05      3.04401      29.0912 
-0.000199114      8.57677     -125.413 
0.000234161      1.55425     -144.162 
-0.000275147      7.59924     -125.196 
0.000152285      8.03026     -85.9296 
0.000564541     0.496488     -152.403 
0.000114623      3.52240     -177.885 
-0.000279723      5.45047     -30.4229 
0.000171990      3.59313     -2.39258 
0.000198142      3.05275      28.9999 
2.59100e-05      4.65017     -179.507 
-0.000176000      2.24735     -141.141 
-0.000303332      4.39118     -97.8533 
9.68407e-05      2.19829     -19.6714 
0.000198352      7.56519     -76.6250 
-2.56445e-05      7.60230     -95.2831 
0.000514022      9.09031     -118.877 
0.000477151      3.53239     -177.891 
-0.000305127      1.40872      153.435 
-0.000732710      2.39015      24.2059 
-0.000182663      1.23976      19.3118 
0.00104862      4.01877      6.85976 
-9.75414e-05      4.66507     -105.287 
0.000280274      7.56227     -122.471 
-7.23689e-05      1.15624     -49.5600 
-0.000279819      6.54987     -105.224 
-0.000196813      5.73847     -41.4677 
-0.000146093      2.19420      23.6443 
-0.00135480     0.624820      129.806 
0.000430302      4.58939      23.7723 
0.000183205      1.32004     -167.754 
-0.000240284      2.02800     -36.9829 
0.000164020      3.06620     -105.124 
2.50283e-05      7.58191     -76.4220 
-4.97935e-05      1.41767      153.616 
-0.000111084      1.32378      26.9522 
-0.000505264      2.39470      54.5179 
-0.000116425      2.27035      144.140 
-0.000977349      3.68155     -115.243 
0.000279652      8.66811     -62.5185 
7.34404e-05      3.08021     -103.901 
0.000258313      2.59856     -11.0937 
-0.000227563      7.72023     -89.5547 
0.00141068      9.09514     -118.932 
0.000441747      7.46133     -121.965 
-7.17795e-05      2.67082     -154.970 
-0.00109299      2.24891     -141.499 
-0.000648464      3.59836      30.1991 
0.000213436      7.78437     -68.0482 
-0.000729126      5.95349     -111.480 
-2.46006e-05      5.76238     -83.9233 
0.000136339      2.28239     -103.427 
-0.000138436      5.76945     -139.851 
-0.000229550      2.74607     -64.0881 
-0.000207545      5.76345     -83.8245 
0.000184069      8.10161     -69.3281 
0.000553049      3.65234     -175.288 
-0.00140880      1.38697      34.7213 
-2.42993e-05      6.27466     -68.3003 
0.000302429      3.04016      29.3475 
0.000279903      7.54385     -131.615 
-7.00773e-05      6.53716     -109.294 
7.05319e-05      4.17660     -13.5704 
0.000247727      8.03097     -85.8585 
-0.000157933      3.05360     -73.6422 
2.40146e-05      2.38849     -157.085 
0.000335342      7.59634     -76.2930 
-2.39961e-05      1.21491      20.2249 
0.000613682      2.69466     -11.5601 
-0.000162959      6.30968     -43.4588 
0.00119900      3.30605      146.598 
-0.000251057      5.74596     -41.4017 
-0.000251074      7.59348     -125.134 
-0.000135330      1.51476     -125.054 
4.44692e-05      1.20934     -150.255 
-7.01429e-05      3.69985      146.353 
0.000113149      3.38841      159.800 
0.000224307      3.07782     -103.720 
9.22403e-05      3.29612     -127.357 
-0.000302485      4.78550      157.776 
-0.000242780     0.815414     -146.505 
-0.000107446      5.75196     -119.016 
-0.000445347      2.18504      23.7495 
-6.74477e-05      2.68034     -76.8452 
0.000368486      5.49524     -136.106 
-0.000133207      7.33542     -97.0475 
4.60090e-05      2.39771     -157.178 
-0.000249478      3.68077     -112.524 
0.000148835      4.39150     -105.587 
-0.000108502      4.66245     -105.169 
6.78443e-05      4.34663      176.835 
-6.74189e-05      8.57098     -125.359 
0.000112649      1.54019     -165.332 
0.000104762      3.36407      23.2880 
-0.000252113      6.99829     -102.209 
0.000315232      2.44976      14.6602 
0.000520475      2.90131      164.814 
-4.51689e-05      6.28765     -68.2494 
-0.000385503      2.02002     -37.1535 
0.000271422      4.33610      176.959 
-0.000155173      3.71372      146.310 
2.28027e-05      2.80530     -39.6487 
-0.000604191      6.30242     -43.5213 
0.000854262      7.78064     -68.1165 
0.000131418      1.38521     -94.9697 
0.000404302      5.11743      12.2981 
0.000542789      1.54019      75.3322 
0.000340714      7.70019     -110.765 
0.000546675      4.57515      23.9879 
-0.000760143      5.93978     -39.3980 
0.000109141      7.45033     -66.8418 
-2.25077e-05      3.86194     -118.622 
8.75245e-05      4.18632     -13.5383 
-0.000129949      2.13263      138.612 
0.000252837      3.29803     -127.113 
-0.000415494      2.38648     -119.358 
-6.56848e-05      8.56759     -125.211 
-0.000366903      3.12700      147.936 
-8.33400e-05      2.11367     -145.408 
6.34426e-05      2.41232     -157.581 
-0.000296156      2.91973      9.46232 
0.000101743      3.82256     -159.479 
-4.29700e-05      2.84429      169.875 
-4.34899e-05      3.38071     -136.198 
-0.00130418      9.39662     -120.577 
-6.44945e-05      4.06690     -43.7048 
-0.000592550      1.57442     -64.4115 
0.000525803      2.29268     -38.2695 
-6.45861e-05      1.57410     -126.215 
-0.000268048      7.59685     -125.301 
-0.000126010      5.00153     -64.9208 
-0.000209441      5.76008     -41.4105 
0.000182139      7.18468     -83.6070 
-4.27602e-05      7.47511     -83.7021 
-8.26140e-05      2.82082     -67.7083 
-0.000353319      4.78174     -6.60484 
2.16546e-05      7.62775     -75.9638 
4.17096e-05      3.60312     -2.38595 
-4.26161e-05      2.91878     -108.373 
-0.000524902      1.39531      153.619 
0.000338626      8.65002     -62.6055 
4.23130e-05      4.45082     -13.3806 
0.000101937      3.06185     -105.534 
-2.13647e-05      6.15649     -40.5205 
-0.000381814      5.75243     -83.9128 
0.000229666      2.62011     -11.2242 
-9.87000e-05      1.97517      124.897 
0.000475348      4.37100     -119.615 
2.12833e-05      7.66438     -75.4923 
-0.00111357      6.78358     -139.005 
-0.000608970      3.72204      146.395 
8.55977e-05      2.54126     -1.80400 
0.000210100      3.59961     -119.271 
0.000997241      1.38438     -94.5574 
-0.000101147      8.56183     -125.156 
0.000191142      8.10514     -69.2619 
2.10894e-05      7.56765     -122.535 
-4.17379e-05      4.44649      27.8906 
-0.000243387      6.55690     -105.117 
2.09599e-05      7.68163     -75.2944 
-0.000153420      2.74171     -64.2761 
0.000124771      3.37902      159.742 
-0.000606711      1.19281      34.7559 
0.000202034      7.68417     -75.2223 
-0.000196050      3.98803     -126.640 
-4.10623e-05      7.48727     -83.5584 
0.000157975      7.57608     -122.494 
-0.000102281     0.458039     -36.1193 
-3.92282e-05      1.50659     -125.272 
0.000188880      7.44640     -66.9125 
2.07144e-05      4.19605     -13.5064 
0.000263930      3.07547     -103.539 
-0.000489354      4.45067      27.7166 
-5.99759e-05      3.86595     -118.421 
0.000244602      8.03170     -85.7873 
6.85106e-05      1.14495     -115.894 
-0.000332238      1.59402     -126.582 
0.000442920      7.57957     -76.4954 
0.000197868      4.41932     -13.3445 
-2.05248e-05      4.08104     -43.7093 
6.08526e-05      2.36315      28.8427 
0.000300886      5.18792      156.845 
0.000205698      3.92042     -78.3748 
-2.04138e-05      3.95545     -22.2856 
-2.04177e-05      7.59516     -95.5154 
-0.000152603     0.807094     -146.113 
-4.03012e-05      2.92195     -108.559 
-0.000382740      7.08311     -54.8291 
4.03720e-05      3.55203     -178.064 
-9.87129e-05      5.89644     -41.1494 
-5.32408e-05      4.62615     -39.2981 
-0.000391068      2.89263     -84.6442 
-0.000109478      7.37656     -70.1894 
-0.000319057      2.12514      138.434 
0.000643185      4.56602      24.0389 
-0.000861882      6.62722     -47.9357 
0.000402384      3.54203     -178.059 
-0.000154733      9.03675     -57.0133 
1.99621e-05     0.392938     -104.744 
0.000515679      7.70954     -110.739 
7.70599e-05      7.33239     -52.5362 
-9.74804e-05      5.78170     -41.3537 
0.000209684      4.30847      158.915 
-0.000569607     0.444072     -35.8377 
-3.86568e-05      2.26226      143.991 
-5.78874e-05      4.38549     -98.2594 
0.000355370      2.35053      29.2914 
-3.92145e-05      3.06602     -73.5155 
-0.000351824      2.01206     -37.3255 
0.000297471      1.53310     -164.876 
-3.92701e-05      3.96471     -22.2308 
-1.97903e-05      6.68689     -111.770 
9.41156e-05      5.20105      156.787 
1.97449e-05      7.70600     -110.669 
0.000149230      3.12488      167.431 
0.000200655      7.88011     -57.0158 
-5.83168e-05      7.56789     -96.4489 
0.000323790      3.29201     -126.974 
-1.96248e-05      4.08828     -43.6125 
-0.000146864      4.98401     -65.0803 
1.96004e-05      4.23728     -13.5115 
-3.86384e-05      9.25248     -123.450 
-3.81729e-05      7.48840     -83.4824 
-3.76586e-05      3.68462     -112.668 
0.000439591      2.45943      14.6013 
-0.000278277      1.09659     -96.2825 
-1.94948e-05      4.10241     -43.6173 
0.000217177      7.44755     -121.940 
-3.72793e-05      7.34173     -96.8056 
5.76613e-05      8.12691     -62.5206 
0.000310809      7.70154     -75.0255 
9.24486e-05     0.398121     -101.592 
-0.000184482      7.59107     -125.239 
0.000194372      5.83220     -114.192 
0.000428487      4.32612      176.952 
-0.000389341      2.39140     -119.567 
-0.000162348      3.98700     -22.2551 
-9.12207e-05      8.55607     -125.102 
-1.90991e-05      5.74711     -118.929 
0.000109648      7.09660     -46.9985 
-0.000142346      2.92015     -14.2742 
-0.000114342      4.64023     -39.3155 
-0.000207535      4.66950     -105.018 
-1.90020e-05      8.77041     -117.208 
-7.46311e-05      4.12380     -43.5262 
-0.000437563      6.55930     -97.7101 
-0.000230139      7.56138     -96.6833 
-0.000374622      6.29517     -43.5840 
-1.89252e-05      6.53437     -109.489 
-5.60716e-05      5.87480     -41.2043 
0.000250996      8.12230     -62.5831 
1.88757e-05      4.24700     -13.4800 
-0.000371457      2.94679     -3.89168 
-0.000515041      5.93206     -39.4593 
-5.45526e-05      2.89834     -148.833 
-0.000403058      9.24966     -123.535 
3.66542e-05      5.09221     -74.6265 
-1.87482e-05      7.71016     -89.6284 
3.68987e-05      8.39345     -121.455 
-1.87077e-05      4.37305     -141.872 
0.000562852      4.40959     -13.3744 
0.000125238      5.37520     -46.2061 
7.24769e-05      2.83069     -47.2906 
1.86646e-05     0.394081     -125.707 
5.50469e-05      3.04889      29.2554 
-0.000538494      6.99035     -43.0291 
-0.00129682      9.39821     -120.713 
1.85849e-05     0.528110     -71.2220 
-8.95443e-05      5.80332     -41.2974 
0.000108115      7.58146     -122.558 
0.000271472      7.17363     -83.6774 
-0.000414460      7.42321     -81.9463 
0.000345280      8.15142     -120.687 
5.44143e-05      4.36010     -119.093 
-0.000158791     0.974166      5.30091 
0.000140273      7.33848     -52.4743 
-0.000466522      9.03131     -57.0666 
3.64612e-05      8.47765     -115.054 
-8.46008e-05      6.88233     -112.466 
8.99297e-05      8.64542     -62.6643 
0.000225998      4.09871     -98.8418 
-0.000139194      8.77019     -117.062 
0.000171709     0.524976     -72.2553 
-8.85373e-05      2.82462     -67.5206 
-5.12457e-05      3.86120     -118.291 
0.000305050      6.23722     -92.7569 
-6.94508e-05      7.58634     -92.3419 
0.000105370      3.46602     -143.328 
0.000493600      4.55688      24.0902 
-0.000264402      5.00121     -119.333 
-1.81211e-05      5.88233     -41.1401 
3.56760e-05      5.17294     -34.3659 
0.000182687      4.36836     -13.3682 
0.000483976      4.31780      158.962 
-0.000173315      4.14519     -43.4360 
0.000172130      8.70761     -119.214 
-5.29530e-05      5.86069     -41.1951 
0.000168139      7.29647     -61.9598 
0.000439109      3.66150     -175.457 
-0.000102776      4.84175     -107.799 
0.000151137      1.26531      109.867 
-0.000434137      7.10282     -54.7436 
8.70588e-05      4.30768     -13.4233 
0.000149578      3.05765     -105.945 
0.000103023      3.62399     -92.6887 
-9.84421e-05      1.96947      124.658 
0.000285275      4.36497     -119.208 
-5.19661e-05      7.79015     -130.992 
-8.41977e-05      6.53104     -109.406 
-0.00114033      4.45953      27.6568 
-6.88911e-05     0.798812     -145.713 
-3.45961e-05      6.43175     -56.2852 
-0.000572497      2.17995      24.0959 
-0.000115305      7.41934     -76.3571 
8.65984e-05      4.86294      14.4077 
-0.000401094      5.82495     -41.2414 
6.62837e-05      7.28750     -81.6364 
0.000130570     0.512445     -72.9795 
0.000274111      8.62736     -62.7518 
-0.000101668      7.59448     -125.406 
-0.000941321      3.60200      29.9816 
-0.000133225      1.35059      178.303 
0.000349432      3.11512      167.391 
-6.80954e-05      4.77180     -6.61865 
-1.73190e-05      1.99722     -15.9848 
8.28751e-05      8.38824     -121.397 
-1.72900e-05     0.818352     -147.475 
0.000149766      7.58989     -122.518 
0.000626568      7.17527     -49.9184 
-0.000281048      2.66085     -5.17494 
-5.10145e-05      2.83769     -67.4112 
0.000131472      2.82392     -47.4397 
0.000505521      2.68486     -11.6029 
0.000242762      4.27229      18.1381 
-1.71921e-05      4.94414     -133.607 
0.000248936      4.85326      14.4371 
-1.71500e-05      2.83445      169.840 
-5.07105e-05      8.55033     -125.047 
0.000462166      7.71639     -74.9012 
1.70998e-05      8.47342     -114.992 
6.71070e-05      1.33825     -114.267 
-0.000374493      3.73591      146.352 
-8.26023e-05      4.91178     -93.9693 
-6.63591e-05      2.00412     -37.4989 
-0.000258671      6.94035     -89.4221 
-0.000294958      5.63799     -85.4220 
5.00405e-05      8.03244     -85.7162 
0.000515800      2.70647     -11.7251 
0.000716321      8.11770     -62.6458 
-4.89649e-05      5.09284     -51.2172 
0.000112146      4.80833     -143.797 
0.000248740      3.85019      32.6995 
1.67329e-05      8.47406     -114.841 
-0.000162571      7.61095     -125.966 
4.85457e-05      3.07314     -103.358 
-1.66867e-05      6.42620     -56.3594 
6.37880e-05     0.475079     -149.657 
0.000110334      5.48804     -136.034 
4.80730e-05      4.31741     -13.3925 
8.20867e-05      4.53363      24.3603 
6.44311e-05      5.38213     -46.1292 
0.000383623      1.49402     -53.4369 
-0.000112525     0.809938     -147.095 
-0.000360540      4.94677     -62.5543 
-0.000204452      6.28793     -43.6468 
-0.000111993      8.49552     -124.158 
9.63831e-05      4.00013      7.03619 
0.00130623      9.08943     -118.736 
-1.64836e-05      1.38636      153.435 
-0.000123725      2.84155     -67.2250 
-0.000232734      4.15933     -43.4413 
-0.000137150      3.99802     -127.071 
1.64473e-05      6.44343     -81.3417 
0.000138510      3.60451     -119.410 
-3.27555e-05      8.76564     -117.004 
3.20532e-05      8.04876     -56.0928 
0.000338707      1.48809     -53.7462 
-0.000430681      7.79672     -131.048 
-0.000186846      8.69830     -55.6340 
-6.38898e-05      5.97697     -146.602 
-0.000214338      2.93232     -14.4154 
-0.000436578      4.78290     -6.72384 
3.26126e-05      4.69158     -25.9096 
6.41222e-05      3.62447     -92.8466 
1.63778e-05      6.24628     -92.5692 
1.63535e-05      8.02173     -85.7821 
-0.000245250      7.56255     -96.7585 
-0.000417996      1.37295      153.622 
-7.96499e-05      1.60000     -126.870 
0.000768700      8.14632     -120.626 
-0.000290065      5.81083     -41.2323 
0.000123009      1.54842     -144.462 
-0.000123763      5.93842     -39.5338 
4.84387e-05      4.52452      24.4125 
-0.000131363      1.38192      153.806 
0.000139881      1.34332     -113.703 
0.000110195      8.02247     -85.7108 
-3.22621e-05      2.50511      137.265 
-4.69616e-05      6.55430     -105.033 
-0.000320209      2.39268     -120.101 
-0.000839952      8.06546     -99.2755 
-6.40226e-05      8.77002     -116.916 
-0.000169082     0.993227      4.61992 
-6.26521e-05      7.70006     -89.7768 
0.000111097      8.49416     -72.0343 
-1.60895e-05      8.54459     -124.992 
9.46512e-05      3.29401     -126.731 
0.00168059      4.84608      14.5811 
0.000275057      7.71309     -110.808 
-1.60543e-05      1.20104      34.4840 
3.14726e-05      4.89401      156.263 
6.21238e-05      8.09469     -116.882 
0.000110175      4.11779      156.984 
-4.74401e-05      5.92434     -39.5208 
3.18545e-05      4.51542      24.4650 
0.000107587      3.06150      28.9092 
1.59285e-05      4.50632      24.5176 
-0.000185233      2.48365      137.121 
-7.70014e-05      3.14396      148.130 
-0.000152251      6.52494     -109.518 
6.11208e-05      8.46986     -114.780 
9.34346e-05      7.59296     -122.413 
-6.15427e-05      5.74249     -83.9022 
0.000146415      4.68258     -25.9631 
0.000135151      4.09196     -99.1401 
-0.000221561      1.98217     -37.6215 
-0.000350866      8.52383     -66.0512 
-0.000298060      4.53856      5.18300 
0.000513109      4.10859      156.930 
-0.000522211      2.65089     -5.19443 
0.000307818      4.36986     -119.322 
4.69927e-05      4.49722      24.5705 
-0.000268396      8.76550     -116.857 
0.000105290      8.38303     -121.339 
1.57317e-05      7.34458     -52.4124 
-6.01230e-05      4.39841     -97.5774 
-0.000251562      4.41811     -162.344 
-0.000195301      8.11414     -53.4690 
0.000272553      4.01005      7.01868 
1.56718e-05     0.404475     -98.5308 
4.63685e-05      2.46911      14.5428 
-1.56720e-05     0.430116     -35.5377 
0.00178845      9.09425     -118.791 
0.000596980      7.16260     -83.7481 
-0.000104148      1.37091      177.910 
-3.09081e-05      8.53886     -124.937 
7.75310e-05      4.48813      24.6236 
-1.56357e-05      7.60148     -125.739 
0.00109851      5.14628     -6.80740 
-1.56049e-05      7.57676     -92.4206 
-6.05532e-05      4.66692     -104.900 
-0.000490265      2.10354      138.276 
0.000488393      4.32714      159.010 
0.000131661      7.31000     -61.9275 
0.000329346      8.47850     -72.1421 
-0.000136830      7.60508     -125.906 
1.55454e-05      5.83316     -113.972 
-3.07791e-05      6.94046     -89.3396 
-0.000213865     0.422019     -36.3268 
-3.08805e-05      1.19854      35.1487 
0.000200940     0.509608     -74.0546 
-7.51454e-05      8.45813     -61.3139 
-0.000118114      1.91450     -154.640 
7.47022e-05     0.411947     -95.5722 
-1.53964e-05      7.00041     -102.289 
0.000146170      5.82911     -113.883 
-1.53879e-05      5.98532     -146.655 
-1.53537e-05      5.39860     -42.9733 
7.22439e-05      3.05491     -105.765 
0.000133320      7.38848     -127.521 
-3.02247e-05      7.59213     -125.511 
0.000133357      1.54276      74.9729 
-0.000398288      2.28090     -26.0033 
0.000219518      3.28804     -126.591 
-7.42907e-05      2.79979     -25.8329 
0.000245457      7.56288     -76.6988 
0.00135845      5.32001      16.1525 
-0.000162522      2.21416     -78.5378 
0.000173774      3.29220      146.648 
0.000150647      4.47904      24.6769 
-0.000212979      5.98820     -146.788 
-0.000582432      9.24133     -123.570 
3.00569e-05      4.50250     -173.112 
4.44913e-05      2.22991     -19.6538 
7.38246e-05      8.08520     -69.4357 
-4.51788e-05      8.53314     -124.882 
4.26389e-05      7.59832     -122.477 
0.000193100      4.80026     -143.727 
0.000103304      8.02322     -85.6396 
0.000255152      4.49257     -173.096 
-0.000384380      2.47633      136.964 
2.98189e-05      4.88485      156.216 
1.50621e-05      3.06811     -103.764 
7.32870e-05      7.60140     -122.373 
5.98279e-05      3.28672      156.321 
2.96900e-05      5.53050     -96.0199 
-5.92056e-05      5.83247     -41.1767 
2.96122e-05      2.24288     -43.0126 
0.000599726      4.33665      176.828 
-0.000217528     0.790569     -18.4350 
2.96234e-05      2.46197      14.8265 
1.49199e-05      3.05918     -105.354 
5.87655e-05      4.25643      18.3498 
-0.000167197      1.58777     -64.2419 
4.39351e-05      2.62084      15.9454 
0.000240028      8.62279     -62.8109 
8.41318e-05      4.69004     -179.756 
-4.36231e-05      1.08780     -96.8637 
4.35524e-05      5.65014     -113.025 
0.000576706      3.26438      156.340 
-2.95501e-05      8.52742     -124.827 
-0.000184597      2.89171     -84.8414 
-1.47889e-05      5.39129     -43.0458 
-0.000223269      6.28070     -43.7098 
0.000230198      4.46996      24.7304 
4.39781e-05      3.81886     -86.0961 
-2.77008e-05      7.00595     -102.112 
-4.37179e-05      7.59564     -125.678 
8.45443e-05      5.94832     -62.7888 
7.22692e-05      3.05655     -105.173 
2.91720e-05      5.48831     -136.181 
0.000223025      3.59701      150.156 
0.000369654      7.73127     -74.7774 
-5.79644e-05      2.24109     -141.340 
0.00171616      9.35830     -56.9043 
-0.000318737      5.95914     -111.355 
1.46374e-05      2.81716     -47.5895 
-0.000143736      7.59922     -125.844 
-4.35301e-05      4.67402     -104.750 
-5.77617e-05      8.49850     -124.307 
-7.12728e-05      3.15246      148.226 
-0.000212107      6.51887     -109.630 
0.000113507      1.94031      81.7029 
-0.000125936      9.02587     -57.1198 
9.75023e-05      9.23442     -119.591 
-0.000150841     0.983260      4.66685 
-2.86529e-05      8.09421     -53.5407 
4.26410e-05      8.38492     -121.491 
4.27141e-05      8.46568     -114.718 
-2.82450e-05      6.56138     -104.926 
2.84559e-05      4.83498      9.40387 
-2.86993e-05      8.52171     -124.772 
-9.86368e-05      7.55501     -96.9181 
-2.85287e-05      4.95104     -133.691 
-0.000328197      8.68441     -55.6512 
0.000178944      7.71664     -110.878 
0.000141685      8.47544     -72.2064 
0.000110779      3.81819     -86.2458 
1.43486e-05      1.15004     -118.571 
-2.83725e-05      3.36180      178.125 
-5.47811e-05      5.74144     -84.0014 
2.81578e-05      2.89000     -180.000 
-0.000374233      2.22596     -78.3367 
-0.000111832      2.39416     -120.635 
-2.81755e-05      8.44456     -61.3408 
-0.000165605      2.25056     -141.857 
-0.000110497      4.67149     -104.631 
4.20658e-05      2.61123      16.0057 
0.000385876      1.53574      74.5158 
-2.81588e-05      2.84543     -67.0394 
-9.47404e-05      4.16659     -43.3468 
-1.42257e-05      5.00018     -119.077 
-4.22908e-05      8.50720     -124.512 
0.000110469      7.39457     -127.583 
5.54295e-05      1.55081     -144.978 
4.18361e-05      4.24694      18.3923 
-5.55463e-05      1.38130      177.510 
0.000229274      1.81554      109.633 
1.41187e-05      1.33933     -113.311 
-1.41090e-05      5.75918     -58.4903 
-9.60734e-05      8.10015     -53.4838 
0.000421949      5.19711      156.888 
-0.000458370      4.77297     -6.73789 
0.000535252      4.34939      158.981 
4.19044e-05      8.02399     -85.5684 
-0.000282346      4.54763      5.04614 
-4.18048e-05      7.09000     -90.0000 
0.000246315      4.33647      159.057 
6.79478e-05      3.51241     -177.879 
-6.95219e-05      7.58982     -125.617 
0.000218228      4.45601      24.9547 
2.70767e-05      4.87570      156.169 
-0.000161933      4.82656     -13.6620 
2.77250e-05      2.79630     -47.7539 
2.77528e-05      1.15486     -119.006 
-0.000173996      6.95058     -89.2581 
0.000276136      8.84299     -125.380 
-1.39639e-05      1.19038      35.4258 
-0.000118663      5.00505     -119.177 
0.000107705      3.67069     -175.625 
0.000442981      8.45982     -72.3147 
-1.39208e-05      6.88776     -112.358 
8.25273e-05      7.96990     -128.121 
0.000200533      3.84721      32.9052 
-5.49597e-05      1.92354     -154.767 
1.39202e-05      8.37970     -121.433 
-0.000269397      8.50154     -124.456 
5.50735e-05      6.54105     -45.5575 
0.000134547      3.29014     -126.347 
-0.000264709      8.76541     -116.711 
-0.000216303      7.59337     -125.783 
1.38501e-05      3.12708      167.253 
0.000617354      3.28385      146.552 
-1.38209e-05     0.822192     -18.4350 
5.46699e-05      8.38163     -121.585 
5.41855e-05      6.53405     -45.6201 
1.37538e-05      3.05221     -105.584 
4.08144e-05      2.60161      16.0664 
-0.000340376      5.99657     -146.840 
0.000172781      5.83020     -113.663 
5.43897e-05      2.56681     -171.712 
0.000117037      2.90000     -180.000 
-3.87855e-05      3.67679     -115.450 
-0.000106195      7.09001     -89.9192 
1.36460e-05      4.84484      9.38455 
-6.71960e-05      3.96611      19.4400 
1.36516e-05      7.52471     -112.339 
-2.71439e-05      2.39585     -121.169 
-0.000368030      6.51283     -109.743 
-0.000311229      2.10718     -155.016 
-0.000171219      1.38452      35.2971 
5.30196e-05      5.10766      12.3220 
0.000118494      1.94743      82.3276 
8.05792e-05      8.01480     -85.4916 
-5.28980e-05      4.00406     -127.185 
1.35475e-05      5.02881     -163.835 
-6.65865e-05      7.55381     -96.8428 
-0.000463468      6.77702     -139.069 
1.35500e-05      7.27761     -81.6249 
-0.000325416      7.80422     -51.7644 
-5.29978e-05      3.16097      148.321 
-5.29511e-05      1.06042      105.871 
0.000312911      5.03564     -163.976 
4.01691e-05      1.16108     -120.541 
-1.35110e-05      1.97426     -37.7986 
0.000171627      2.18179      119.973 
-0.000186623      5.26972      19.7416 
0.000310835      2.54849     -171.425 
-0.000468354      2.45489      136.816 
5.33044e-05      7.96373     -128.064 
3.98026e-05      2.78959     -47.9059 
7.92803e-05      8.38361     -121.737 
7.94685e-05      4.23115      18.6062 
-0.000117277      2.39251     -121.498 
0.000182096      8.14477     -120.469 
0.000335641      4.50131     -173.238 
0.000143032      5.73922     -64.7298 
-0.000117397      8.53703     -66.0171 
-9.15312e-05      6.99718     -43.0889 
-2.66576e-05      1.90979     -154.240 
-9.28654e-05      9.23299     -123.604 
0.000338675      4.35873      159.029 
0.000654237      4.44694      25.0091 
1.33169e-05      2.59201      16.1276 
-0.000155469      2.24270     -141.699 
0.000244366      6.55519     -45.5563 
2.64346e-05      7.62450     -123.336 
3.93666e-05      4.37477     -119.436 
3.93370e-05      4.71001     -179.878 
3.93492e-05      7.40068     -127.644 
-0.000306627      6.29484     -43.7127 
0.000478993      5.10439      160.784 
3.92735e-05      1.16619     -120.964 
7.82286e-05      8.01559     -85.4204 
-1.31934e-05      1.40175      177.138 
-2.62744e-05      7.59698     -125.950 
1.31960e-05      1.55332     -145.491 
3.91625e-05      8.64083     -62.7232 
6.51899e-05      3.61066      150.098 
-3.93724e-05      7.58752     -125.722 
-3.90074e-05      1.91880     -154.370 
-0.000411098      5.26031      19.7784 
-0.000152934      1.28705      145.446 
2.62400e-05      2.58925      15.9150 
-0.000496925      9.22746     -123.552 
-7.80304e-05      8.50464     -124.606 
1.31031e-05      3.80757     -86.3861 
-1.31032e-05      2.69704     -76.2729 
-0.000190278      2.30326     -26.0088 
-5.17865e-05      5.73045     -84.0904 
-0.000140367      6.55796     -97.6235 
-3.89470e-05      3.98167      19.2086 
0.000151593      7.96822     -128.222 
-0.000242683      7.59111     -125.889 
0.000101757      7.63000     -123.398 
0.000767999      4.39986     -13.4046 
-3.85540e-05      2.18909      23.9891 
-0.000103107      8.06707     -99.3456 
0.000804475      8.45678     -72.3792 
5.13199e-05      3.50280     -177.709 
-8.94746e-05      6.82915     -47.3143 
-6.35567e-05      1.58345     -64.5678 
1.29822e-05      4.22167      18.6495 
-0.000616316      4.78408     -6.84277 
-0.000352490      6.37800     -143.094 
-2.58552e-05      5.11769      19.6388 
-6.44204e-05      8.49589     -124.401 
2.57987e-05      5.05617     -126.394 
-3.86621e-05      4.83628     -13.6340 
-0.000375741      1.18152     -56.0409 
-0.000188455      7.40727     -76.4140 
5.12127e-05      2.57963      15.9759 
-2.56596e-05      7.42182     -82.0227 
1.29114e-05      1.39291     -93.7046 
6.36982e-05      2.29889     -38.4652 
1.29043e-05      4.01998      7.00127 
-0.000150093      2.39069     -120.964 
0.000214600      3.85561      32.8245 
0.00300640      9.54322     -121.808 
-0.000114341      5.81743     -41.3064 
-1.28974e-05      2.70913     -76.1176 
2.56417e-05      1.65130      73.1013 
5.13576e-05      2.17681      119.745 
2.57193e-05      5.83137     -113.444 
1.28774e-05      3.81084      164.943 
1.28810e-05      1.55596     -146.004 
-5.12033e-05      1.42225      176.775 
3.82964e-05      4.21541      18.8218 
1.28799e-05      4.58024      23.8228 
0.000113464      8.38038     -121.831 
-0.000101092      8.05924     -106.434 
0.000100925      1.16812     -122.057 
3.82163e-05      2.78289     -48.0587 
0.000151264      3.61934      150.177 
6.37452e-05      1.82833      109.822 
8.90930e-05      8.01640     -85.3491 
-0.000299945      5.12106      19.7441 
5.05747e-05      5.09789      12.3459 
-1.28076e-05      4.67616     -104.363 
1.28174e-05      1.38362     -94.1446 
-1.28162e-05      7.00806     -102.192 
3.79870e-05      3.80695     -86.5363 
6.35751e-05      5.82740     -113.354 
-3.79750e-05      3.16948      148.416 
-0.000487085      8.49896     -124.550 
0.000100174      3.90448     -152.713 
1.27752e-05      7.38308     -52.1522 
-0.000287481      2.30705     -83.0290 
-6.33628e-05      4.84836     -13.7210 
-1.27675e-05      6.64134     -47.9294 
-0.000100468      6.96072     -89.1768 
2.53540e-05      7.40679     -127.705 
-0.000188100      6.92799     -110.004 
3.78424e-05      9.06595     -117.385 
2.51688e-05      5.06004     -126.643 
6.28289e-05      3.28641     -125.963 
3.81328e-05      2.19545      120.069 
7.58199e-05      7.15157     -83.8191 
-0.000335828      7.46363     -46.7916 
1.27118e-05      3.80118      164.904 
-3.75802e-05      7.09003     -89.8384 
-0.000137929      8.07533     -99.2640 
-3.78152e-05      5.71948     -84.1798 
-0.000175833      6.50680     -109.855 
3.78837e-05      1.95604      82.6570 
3.77300e-05      5.53940     -95.9061 
0.000261984      4.35718      176.711 
0.000211622      5.73495     -64.8201 
-5.03608e-05      1.44281      176.424 
1.26524e-05      1.64842      73.4339 
3.77049e-05      4.34074     -88.9440 
2.51398e-05      4.57109      23.8734 
0.000235863      7.18936     -49.9087 
0.000199734      2.19046      119.842 
2.52375e-05      7.74355     -74.7254 
-0.000162739      9.20263     -59.1430 
3.76902e-05      5.05408     -126.552 
0.000614264      1.83175      110.117 
1.26267e-05      8.36236     -120.705 
7.49028e-05      6.55809     -136.792 
-6.25592e-05      1.38221      35.8750 
3.76176e-05      7.38922     -52.0910 
2.51430e-05      4.49810     -129.316 
-7.45858e-05      7.01364     -102.015 
1.26031e-05      7.96203     -128.165 
6.26843e-05      5.82870     -113.134 
1.26059e-05      1.67487      78.2875 
-8.75025e-05      7.00037     -44.8843 
6.25997e-05      8.01721     -85.2779 
-0.000448279      5.25090      19.8153 
-0.000224748      2.44761      136.655 
3.76040e-05      6.48189     -121.949 
1.25714e-05      7.76764     -68.1575 
1.25609e-05      2.57002      16.0373 
1.25528e-05      4.20595      18.8657 
0.000335928      7.74619     -74.6541 
-0.000260959      7.81041     -51.7068 
-1.25484e-05      6.82238     -47.3761 
0.000421785      5.08488      24.1455 
0.000162028      1.67287      78.6229 
-0.000248482      5.99948     -146.972 
-3.73550e-05      6.97447     -97.1658 
-0.000633820      9.40171     -120.629 
2.49831e-05      6.47724     -135.375 
1.25215e-05      8.13792     -119.684 
-2.49902e-05      6.80148     -47.4430 
0.000136638      2.54012     -171.168 
-7.47031e-05      2.23486     -141.540 
9.94330e-05      7.15266     -83.7394 
-2.49403e-05      2.71155     -75.9125 
-0.000285485      7.58526     -125.827 
-7.69076e-05      1.17597     -56.4451 
0.000260694      8.85115     -125.342 
1.24969e-05      7.41291     -127.767 
0.000198618      8.14167     -119.588 
3.73134e-05      7.26918     -81.5355 
0.00124881      4.43788      25.0637 
-2.48877e-05      1.57918     -64.8954 
0.000424124      6.74830     -43.4389 
0.000211177      5.08993      23.9968 
1.24793e-05      2.56727      15.8228 
9.91834e-05      4.50444     -129.415 
0.000695993      5.61288     -155.809 
1.24677e-05      1.52882      74.0546 
9.92150e-05      4.51008     -173.379 
-4.97036e-05      1.46342      176.082 
0.000324204      6.47660     -121.874 
3.73473e-05      6.54819     -45.6187 
3.73588e-05      9.36172     -122.790 
6.20129e-05      1.95735      82.3667 
0.000309837      4.64362      17.0302 
-0.000248011      6.38001     -143.220 
-4.95925e-05      5.94751     -39.3369 
1.24462e-05      7.08978     -47.0576 
-2.48600e-05      8.53297     -66.0784 
0.000111525      5.20631      156.931 
7.44598e-05      5.83008     -112.915 
1.24440e-05      7.31471     -61.8584 
-1.24433e-05      3.17800      148.511 
-1.24282e-05      4.54070     -170.621 
-8.68051e-05      8.05641     -106.365 
9.91101e-05      7.63551     -123.461 
-0.000272561      6.31621     -43.6529 
8.67986e-05      8.01804     -85.2067 
-0.000198239      6.50341     -109.772 
2.48220e-05      7.39536     -52.0299 
-0.000235309      7.00746     -44.8266 
8.67910e-05      4.79814     -143.560 
4.95800e-05      2.55766      15.8839 
-0.000210630      9.20776     -59.0896 
-1.24126e-05      5.70853     -84.2694 
0.000173367      9.35631     -122.739 
-0.000371493      1.95167      68.0350 
-8.68272e-05      2.37674      118.938 
7.43063e-05      1.30648     -84.2894 
-0.000161028      3.62693      144.426 
-0.000260445      9.22194     -123.501 
-2.48003e-05      7.94271     -81.2374 
2.47628e-05      4.34093     -88.8120 
1.23950e-05      2.91000     -180.000 
-3.71507e-05      6.55665     -97.5369 
-0.000111380      8.07694     -99.3340 
8.66340e-05      7.25929     -81.5239 
-4.95583e-05      6.97103     -89.0137 
-3.71802e-05      2.46903      136.805 
-0.000148648      2.29428     -26.1183 
-0.000322482      4.78173      157.887 
3.71698e-05      5.05213     -164.148 
1.23921e-05      6.58217     -79.4071 
7.42898e-05      3.63299      150.118 
-2.47603e-05      4.52922     -170.725 
0.000284810      1.67093      78.9591 
-0.000223354      2.63059      8.74616 
1.24016e-05      6.47012     -135.313 
-2.47655e-05      5.96279     -111.445 
-1.23812e-05      1.30096      145.333 
4.95253e-05      6.56933     -45.5551 
2.47541e-05      8.37717     -121.926 
0.000161294      5.37182     -88.5066 
-4.94880e-05      7.95412     -81.1772 
6.18924e-05      6.47006     -135.188 
4.94891e-05      7.06818     -79.0716 
-1.23812e-05      8.76092     -116.653 
-1.23872e-05      5.67297     -84.8421 
1.23778e-05      6.56869     -79.5625 
0.000123726      5.83154     -112.695 
-1.23819e-05      4.04401      154.829 
-0.000148937      2.22551     -141.019 
1.23733e-05      7.41904     -127.828 
3.71017e-05      1.17346     -122.471 
-0.000868263      9.40332     -120.765 
-1.23713e-05      5.83154     -41.3153 
-0.000348092      2.46175      136.646 
-0.000123858      6.93397     -109.898 
2.47535e-05      1.66307      78.5549 
-0.000284573      5.24150      19.8524 
-0.000161209      7.40962     -76.3388 
0.000285041      4.34006      158.934 
-0.000185652      2.38550      118.821 
2.47346e-05      2.54804      15.9454 
1.23682e-05      7.83127     -93.0743 
0.000111350      8.01888     -85.1355 
-8.66256e-05      1.99110      59.1843 
-4.94886e-05      1.12681      121.574 
0.000198126      4.45180      24.8381 
-3.71599e-05      5.02388     -157.161 
-1.23674e-05      7.09006     -89.7576 
0.000161153      2.18550      119.615 
-0.000310352      4.79521     -6.94717 
-0.000199109      6.77047     -139.133 
4.94806e-05      5.04251     -164.117 
2.47497e-05      6.57051     -79.4768 
-0.000371795      7.57594     -92.2695 
-3.71169e-05     0.604401      128.956 
-6.19538e-05      6.56397     -97.3524 
-0.000136285      8.05360     -106.297 
1.23603e-05      3.90881     -152.911 
-0.000502185      3.61880      144.333 
-0.000161647      1.47411      175.721 
0.000174352      7.83181     -93.1474 
0.00199061      9.36668     -56.9377 
-2.47317e-05      6.98121     -88.9330 
-0.000223037      7.58889     -125.994 
0.000137269      3.86104      32.9492 
2.47525e-05      2.73437     -174.123 
-0.000818020      9.22148     -59.0682 
9.90601e-05      2.53569      15.7902 
-2.47476e-05      2.38925     -121.827 
0.000161774      8.56983     -108.646 
2.47442e-05      2.71627     -11.6822 
2.47424e-05      7.42517     -127.889 
8.66398e-05      3.64166      150.197 
-2.47357e-05      6.14323     -50.3497 
0.000136499      5.73071     -64.9106 
0.000111781      2.53024     -171.133 
0.000238124      8.14544     -119.492 
-0.000460327      1.14057      121.739 
0.000111847     0.506952     -75.1414 
0.000124203      7.07008     -78.9920 
-0.000111706      7.01929     -101.838 
-6.18864e-05      6.98140     -88.8510 
-2.47626e-05      4.67852     -103.977 
1.23743e-05      9.34790     -122.772 
-8.66824e-05      8.49330     -124.495 
2.47494e-05      7.14163     -83.8104 
0.000161347      9.35090     -122.687 
0.000530628      8.45376     -72.4438 
3.72300e-05      4.85742      156.073 
0.000149414      2.74332     -174.352 
2.47572e-05      7.24940     -81.5122 
0.00108157      4.65318      16.9941 
1.23752e-05      6.76970     -43.3839 
3.71529e-05      4.49952     -129.137 
-0.00117056      5.23811      19.7495 
0.000150897      3.45627      20.8471 
-0.000568938      2.40052      54.3236 
-7.45177e-05      7.95259     -81.2484 
4.95684e-05      3.08229     -83.1055 
1.23768e-05      4.19974      19.0389 
0.000224638      8.01974     -85.0643 
9.92538e-05      5.14230     -165.126 
3.71797e-05      6.57234     -79.3911 
1.23929e-05      4.66623     -77.7509 
0.000112006      5.20240      157.033 
4.95876e-05      4.52881     -173.534 
-0.000111632      7.01456     -44.7690 
0.000803542      9.54646     -121.725 
-1.23906e-05      8.76539     -116.565 
7.43976e-05      7.25088     -81.4341 
-2.47988e-05      2.39140     -122.361 
-0.00167700      1.94795      68.3078 
2.47798e-05      7.42960     -128.058 
1.23830e-05      4.53455      24.0779 
0.000237684      4.83894      14.7255 
3.72192e-05      7.63835     -123.357 
-2.48072e-05      6.13686     -50.4216 
-0.000766694      8.49641     -124.644 
0.00132548      5.09907      23.9511 
-0.000837747      2.38069      118.610 
-0.000792999      1.98252      59.0362 
2.47932e-05      1.17886     -122.881 
1.23843e-05      3.89991     -152.844 
0.000150585      5.83310     -112.476 
-1.24045e-05      5.35690      18.5026 
8.72230e-05      5.82104     -29.4275 
-4.96388e-05      6.99161     -88.7707 
0.000150190      3.65531      150.138 
-6.21394e-05      5.34742      18.5366 
-0.00196784      9.40681     -120.682 
0.000730712      1.66904      79.2960 
8.82050e-05      1.48003     -53.5172 
-0.000112781      6.50004     -109.689 
4.98245e-05      4.37773      176.595 
0.000140203      6.46297     -135.125 
6.24444e-05      2.52606      15.8519 
-1.24137e-05      2.38835     -122.692 
3.72845e-05      4.54876      23.8602 
4.98571e-05      7.43577     -128.118 
-7.49009e-05      7.45325     -132.444 
-0.000348743      6.37200     -143.166 
2.48969e-05      4.33094     -88.8093 
2.48819e-05      5.09401      24.0995 
-3.73686e-05      8.07857     -99.4040 
6.25294e-05      3.08110     -83.2902 
2.48599e-05      1.66111      78.8930 
4.99091e-05      7.53552     -68.2692 
-4.98649e-05      6.33759     -43.5935 
2.48838e-05      1.30553     -84.7261 
0.000100912      3.79947     -158.703 
-6.26036e-05      2.31664     -26.1226 
0.000318418      7.24100     -81.4223 
-4.98666e-05      5.15539     -22.5857 
-0.000178403      3.74146      19.3551 
-0.000277858      7.58301     -125.933 
-4.99656e-05      6.11641     -50.5063 
-0.000138381      6.99183     -88.6887 
-0.000189932      8.05080     -106.229 
-2.48931e-05      7.02870     -44.7694 
-2.48886e-05      8.14440     -85.5635 
1.24357e-05      4.50584     -129.236 
1.24303e-05      4.66412     -77.8709 
6.28958e-05      5.53263     -96.2258 
3.75034e-05      6.77481     -82.7071 
-0.000370578      2.40416      53.7974 
-8.80424e-05      2.39084     -123.225 
0.000230209      4.53763     -173.674 
2.50202e-05      6.57419     -79.3054 
0.000100316      5.14942     -165.262 
0.000368028      5.51711      22.1485 
-0.000175762      5.35374      18.4011 
2.49684e-05      4.98688     -25.7943 
7.52140e-05      4.53961      23.9112 
-0.000112882      7.03580     -44.7121 
0.000166164      4.84828      156.026 
-0.000682330      7.76305     -77.8795 
0.000163527      4.33073      158.887 
-2.50181e-05      6.94338     -109.870 
-1.24804e-05      5.66202     -25.9767 
5.00421e-05      8.24234     -67.2304 
-8.85137e-05      7.81661     -51.6493 
-5.03817e-05      6.56270     -97.2658 
-0.000113409      5.67101     -25.9325 
-0.000202807      8.14518     -85.4934 
-5.01337e-05      8.53218     -59.3472 
0.000203529      2.19914      119.713 
0.000128231      4.96488     -154.467 
-0.000140578      4.95138     -62.4517 
8.86378e-05      9.34551     -122.636 
-2.50904e-05      2.31698     -83.0590 
-1.24972e-05     0.598164      128.211 
-0.000336672      6.60186     -39.2833 
-5.02280e-05      5.13308     -22.5683 
-7.60904e-05      7.95108     -81.3196 
0.000155798      4.99589     -25.7444 
-0.000905654      5.22870      19.7865 
6.34148e-05      7.20345     -49.8991 
-1.25462e-05      8.08681     -99.3225 
-2.51226e-05      4.78528     -6.96165 
-6.31855e-05      6.35897     -43.5345 
-0.000179832      9.21643     -123.449 
-7.71340e-05      7.41199     -76.2637 
0.000101595      8.25543     -67.1933 
-6.37441e-05      8.08844     -99.3924 
-7.61019e-05      4.79476      157.821 
-0.00147564      9.40844     -120.818 
-0.000296701      2.77622      138.212 
-0.000504708      7.47092     -46.8441 
-2.52567e-05      5.43656      159.432 
3.79404e-05      7.53183     -68.3399 
2.52316e-05      7.44194     -128.179 
-0.000378772      4.79643     -7.06575 
1.26001e-05      1.18431     -123.288 
-0.000444430      8.49073     -124.588 
3.78979e-05      2.75327     -174.372 
-1.25992e-05      5.63298     -118.294 
-0.000141279      8.54588     -59.3237 
-0.000257762      5.12385     -22.6113 
-0.000141115      7.46000     -132.501 
0.000667344      8.57303     -108.710 
-3.84395e-05      7.02501     -101.662 
6.37349e-05      5.79871     -29.4385 
0.00119208      5.60879     -155.903 
3.82766e-05      2.51205     -170.838 
0.000412626      5.31724      16.0490 
0.000180422      2.53190      25.2493 
-1.26176e-05      6.11006     -50.5786 
-1.26362e-05      7.02166     -44.7115 
-0.000219114      2.45449      136.486 
-0.000117083      5.28025      14.5889 
0.000256310      5.21161      157.076 
0.000220205      4.53047      23.9625 
1.26552e-05      6.57605     -79.2198 
-5.10646e-05      5.62893     -118.432 
-6.38429e-05      3.08702     -130.138 
-2.53811e-05      7.04291     -44.6548 
-0.000101820      5.34425      18.4350 
0.000208198      2.76226     -174.599 
-0.000186631      1.48486      175.365 
5.12695e-05      7.38995     -80.1043 
-0.000102383      7.02877     -44.6542 
0.000373557      9.09907     -118.847 
9.45535e-05      5.71741     -64.9589 
1.26975e-05     0.504480     -76.2392 
-2.54611e-05      6.12413     -50.5658 
1.26958e-05      1.30465     -85.1634 
3.82837e-05      5.13264     -165.097 
0.000460830      4.95117     -154.263 
-8.99675e-05      5.44944      159.370 
3.83766e-05      2.20511      147.031 
1.27339e-05      5.38209     -88.4029 
1.27331e-05      7.64385     -123.420 
5.14506e-05      7.44648     -128.347 
-0.000295069      5.68001     -25.8884 
5.14715e-05      3.86943      32.8687 
0.000457004      4.33434      158.763 
0.000491113      4.84861      14.6954 
5.15843e-05      7.54112     -68.3679 
-7.78739e-05      3.01199      21.6248 
6.41990e-05      3.14384     -98.4136 
-1.27884e-05      6.37311     -43.5377 
0.000267437      8.03057     -84.9994 
1.27866e-05      3.02952     -57.6739 
-6.62588e-05      2.63898      8.49856 
1.27918e-05      6.76362     -82.7804 
2.57588e-05      6.56437     -79.2892 
-0.000526399      5.35059      18.2995 
-7.84954e-05      2.89358     -84.4470 
2.58464e-05      7.74884     -74.5828 
-2.60512e-05      6.56144     -97.1792 
-0.000156658      6.99207     -88.6068 
0.000201003      7.83237     -93.2204 
-1.28358e-05      2.39353     -123.756 
-7.78449e-05      6.38036     -43.4759 
-0.000133598      6.76393     -139.197 
4.11402e-05      2.79866      48.6215 
7.82975e-05      3.01573     -57.7328 
-0.000778509      9.22663     -59.0149 
-6.51190e-05      6.11779     -50.6381 
-0.000218139      4.79099      157.932 
0.000149768      8.25931     -67.1293 
-0.000540737      8.14598     -85.4233 
2.58885e-05      6.74105     -43.4973 
2.58292e-05      6.15462     -56.8005 
0.000119860     0.519230     -74.3578 
-3.89114e-05      7.82282     -51.5918 
5.24456e-05      5.53372     -96.3288 
2.58851e-05      7.64655     -123.586 
8.05791e-05      2.21894      146.954 
0.000146343      5.13975     -165.234 
0.000105965      9.34012     -122.584 
-3.90801e-05      2.38799     -123.557 
-0.000283541      7.57715     -125.872 
0.000179157      6.76244     -43.4421 
-0.000117600      7.03589     -44.5969 
-3.90847e-05      7.94957     -81.3908 
0.000130828      3.14531     -98.5938 
0.000146625      4.39014     -13.4348 
1.29393e-05      6.76237     -82.8645 
6.61410e-05      5.05998      173.760 
-0.000118549      7.87336     -110.599 
1.29698e-05      3.06780     -83.8248 
0.000343018      2.13009      61.3895 
7.92884e-05      6.47457     -121.677 
0.000105688      3.66896      150.081 
-6.61879e-05      8.09007     -99.4623 
-6.57161e-05      3.08825     -129.877 
9.19509e-05      7.49910     -84.9508 
8.10294e-05      3.80312     -158.562 
-0.000231422      8.04801     -106.161 
3.98646e-05      5.78508     -29.4009 
-0.000405347      4.18661      27.6056 
-3.96383e-05      6.49401     -109.802 
0.000343404      5.32962     -163.877 
-0.000205747      1.51845      96.0485 
0.000497898      5.51335      22.0523 
-3.93612e-05      4.96381      4.27476 
-0.000204272      5.44008      159.333 
-1.30762e-05      4.11206     -17.1130 
-0.000289864      6.26601     -36.7602 
-0.000162918      1.81706      95.0517 
6.68416e-05      2.22279      59.7436 
0.000109893      7.76114     -74.5312 
0.000188300      2.19420      119.486 
2.63974e-05      3.46562      20.7882 
0.000513822      8.44122     -72.4881 
0.000292014      7.23111     -81.4105 
0.000121218      4.83508      156.086 
1.31651e-05      2.21350      147.171 
2.72496e-05      6.75121     -82.9381 
-0.000473387      4.95384      4.28339 
1.31994e-05      8.44408     -114.562 
-0.000164605      7.46617     -132.666 
0.000164233      8.64948     -117.098 
-8.14539e-05      5.21239     -155.156 
0.000124438      2.52286      25.3462 
0.000344712      4.52134      24.0140 
2.66034e-05      7.45268     -128.408 
-5.32572e-05      7.04301     -44.5398 
2.67274e-05      6.56623     -79.2035 
-1.32487e-05      5.63370     -118.521 
1.32731e-05      7.53744     -68.4386 
-0.000319799      5.11462     -22.6543 
-8.08537e-05      6.11145     -50.7106 
0.000135143      3.14682     -98.7738 
-1.33019e-05      6.39450     -43.4792 
-0.000417661      2.78289      138.059 
0.000109128      8.85931     -125.305 
0.000246052      4.42404      25.2907 
5.37889e-05      7.48826     -85.0203 
-0.000289995      7.12136     -44.1466 
-4.02199e-05      8.04400     -106.317 
0.000138368      6.10892     -35.8757 
1.33786e-05      5.83473     -112.257 
-2.69555e-05      9.21092     -123.397 
-0.000321912      8.78965     -113.181 
-0.000125024      3.09467     -130.019 
6.78807e-05      8.39029     -127.348 
-0.000239055      6.99232     -88.5249 
-5.39523e-05      6.78258     -42.1316 
-0.000207140      7.87688     -110.667 
0.000336298      1.67705      79.6952 
2.72849e-05      5.25404     -134.460 
1.34972e-05      7.21754     -49.8895 
0.000110773      2.07118      88.0632 
-8.40426e-05      8.04120     -106.249 
-1.35644e-05      6.67176     -51.2061 
-0.000142000      9.03824     -63.2365 
4.14482e-05      8.43993     -114.500 
0.000141438      3.67764      150.158 
-0.000208361      6.79000     -42.0750 
6.93438e-05      7.45890     -128.468 
9.76130e-05      9.33474     -122.532 
-1.36262e-05      2.33002     -26.2351 
-0.000510144      5.35696      18.1644 
0.000170772      4.83914      155.977 
4.15170e-05      6.56811     -79.1178 
9.83446e-05      7.48914     -84.9441 
-2.80719e-05      3.74760      19.1602 
8.49454e-05      2.77222     -174.618 
-2.78362e-05      6.66550     -51.2731 
2.76325e-05      6.47262     -121.480 
-0.000155970      6.10512     -50.7832 
-0.000313719      8.96416     -119.396 
-9.91752e-05      8.09172     -99.5322 
-0.000199444      4.79767     -7.18427 
-1.37714e-05      2.46862      136.477 
6.95719e-05      8.39219     -127.252 
-2.78931e-05      5.27774      14.4839 
-7.04565e-05      9.20257     -123.431 
-0.000284692      2.37592      118.399 
1.37928e-05      8.14288     -119.745 
-0.000126946      4.64898      19.2144 
0.000142327      3.14836     -98.9537 
-0.000169635      8.38967     -75.4337 
4.21548e-05      3.73134     -88.4643 
-1.39169e-05      6.55152     -97.1901 
1.39260e-05      2.20912      59.8369 
-0.000332519      5.23209      19.8895 
8.58841e-05      2.20783      119.584 
9.94523e-05      4.43308      25.2355 
-0.000129836      7.76096     -77.9516 
8.61598e-05      4.98302      9.12207 
0.000115151      8.86170     -125.214 
-5.72763e-05      1.49566      175.014 
-4.25322e-05      4.50884      21.3295 
1.41041e-05     0.531601     -73.6105 
1.40951e-05      1.45619     -149.913 
-8.71114e-05      2.40637      54.1302 
-0.000216590      4.17775      27.6691 
7.17438e-05      7.83294     -93.2934 
-0.000100755      1.81797      95.3656 
5.76004e-05      2.49690     -46.4605 
0.000144468      8.39824     -127.307 
1.41884e-05      6.47074     -121.283 
4.32783e-05      3.87487      32.9929 
-0.000115986      4.49952      21.3758 
-0.000173672      7.88042     -110.735 
-0.000100939      6.81155     -42.0247 
8.66705e-05      7.91751     -78.1933 
-7.21590e-05      5.20753     -155.010 
4.33270e-05      7.46354     -128.636 
-1.42360e-05      6.36601     -143.238 
0.000115931      1.96652      94.6669 
-4.33886e-05      2.46138      136.317 
-0.000116022      7.11439     -44.0888 
0.000159912      4.41929      25.4633 
5.78867e-05      8.03144     -84.9283 
5.80483e-05      3.72109     -88.6141 
4.33934e-05      9.32936     -122.481 
5.80392e-05      8.64493     -117.039 
1.44087e-05      5.77637     -29.4496 
2.91254e-05      6.73886     -83.0964 
5.83972e-05      4.33797      158.640 
7.29268e-05      4.53557      23.7957 
1.44639e-05      8.13917     -119.841 
-8.76260e-05      8.38716     -75.4998 
-5.84748e-05      8.14678     -85.3532 
-2.92128e-05      9.20542     -123.345 
7.32430e-05      5.10821      23.9055 
-1.45610e-05      5.28126     -139.069 
1.45855e-05      4.82769     -28.3168 
1.46434e-05      3.00727     -57.6311 
-1.46470e-05      4.65842      19.1740 
-4.41412e-05      6.85466     -41.9251 
-2.93897e-05      5.68290     -138.710 
-2.94231e-05      8.49388     -124.738 
-1.47163e-05      6.11287     -50.8425 
1.47444e-05      8.57625     -108.773 
-1.47407e-05      6.65925     -51.3402 
1.47588e-05      7.84292     -93.2892 
