! Center RA: 22 02 43.29137,  Dec: +42 16 39.97996 (2000.0)
! Established model.
! Flux (Jy) Radius (mas)  Theta (deg)  Major (mas)  Axial ratio   Phi (deg) T \
! Freq (Hz)     SpecIndex
 0.0237883    0.0806227      7.12501 
 0.0249462    0.0905539      6.34019 
 0.0347720     0.111803      10.3048 
 0.0454452     0.121655      9.46232 
 0.0720706     0.131529      8.74616 
 0.0157403     0.141421      8.13011 
  0.143981     0.152971      11.3099 
 0.0475789     0.162788      10.6197 
 0.0498983     0.172627      10.0080 
0.00712632     0.182483      9.46232 
  0.320394     0.194165      11.8887 
0.00677913     0.152971      168.690 
0.00818255     0.155242      165.069 
0.00157957     0.158114      161.565 
 0.0810685     0.352278     -173.480 
 0.0332958     0.342345     -173.290 
 0.0536667     0.353553     -171.870 
0.00212904     0.341321     -174.958 
0.00478238     0.452217     -161.966 
0.000730972     0.330605     -176.532 
0.000237254     0.320156     -178.210 
0.00562062     0.271662      173.660 
 0.0222920      2.24350     -166.335 
0.00454076      2.16723     -168.016 
0.000930340      2.34796     -165.194 
0.00180695      2.36019     -165.022 
 0.0390016      2.39437     -164.745 
0.00402273      2.06828     -162.266 
0.00720114      2.17702     -168.071 
0.00911313      2.05876     -162.181 
0.00431284      2.18680     -168.125 
0.00363152      2.19659     -168.179 
0.00730365      2.04924     -162.096 
0.00306974      2.20638     -168.232 
0.00243277      2.21617     -168.284 
0.00553711      2.03973     -162.009 
0.00148555      2.22596     -168.337 
0.00681874      2.23575     -168.389 
0.00218531      2.03022     -161.922 
0.00743504      1.59050     -168.761 
0.000817974      2.20204     -174.005 
0.00585277      2.19107     -174.237 
0.00854959      2.69462     -162.506 
0.000794129      2.19210     -173.977 
0.000470760      2.39871     -171.127 
0.00436086      2.41015     -170.929 
0.00893209      1.15109     -177.510 
0.000350337      2.18112     -174.211 
0.00238061      1.57877     -169.046 
0.000712306      2.02092     -171.750 
0.00242274      2.03226     -171.511 
0.00762019      2.02237     -171.469 
0.00423278      2.43148     -170.770 
0.00159541      2.18014     -174.472 
0.000966296      1.56707     -169.335 
0.00606930      2.60768     -175.601 
0.000316036      1.54557     -169.563 
0.000622884      1.53395     -169.862 
0.000611867      2.19009     -174.498 
0.000611765      1.52237     -170.166 
0.00341764      2.70718     -162.368 
 0.0122578      2.88617     -165.964 
0.000601669      1.51083     -170.475 
0.000887664      2.17920     -174.734 
0.000296981      1.48788     -171.107 
0.000294904      2.62088     -156.859 
0.000294541      1.49933     -170.789 
0.000292297      1.55541     -169.629 
0.00456630      2.63401     -156.744 
0.000572879      2.89831     -165.820 
0.000290364      1.46513     -171.759 
0.000288316      1.58858     -169.114 
0.00220762      2.18915     -174.758 
0.00112717      1.46373     -172.147 
0.00191266      1.39979     -164.673 
0.000281953      1.61012     -168.899 
0.00368677      1.14110     -177.489 
0.000814454      1.63169     -168.690 
0.00160017      1.45248     -172.484 
0.00302366      2.44297     -170.576 
0.00456509     0.263059      171.254 
0.00175399      1.65327     -168.486 
0.00292278      2.18826     -175.019 
0.00340169      2.58699     -175.788 
0.00628662      1.39718     -165.069 
0.000511124      1.46240     -172.535 
0.00147002      1.45121     -172.875 
0.00279179      1.15156     -177.013 
0.00383170      2.65633     -156.716 
0.00614403      2.68509     -162.442 
 0.0112032      2.42161     -170.732 
0.00221141      1.67487     -168.288 
0.00182155      1.46113     -172.924 
0.00421025      2.57630     -175.994 
0.00232497      2.18742     -175.280 
0.00418623      1.14158     -176.987 
0.000857155      1.45993     -173.313 
0.00203500      2.03376     -171.232 
0.00275220      1.46986     -173.358 
0.00288072      2.66948     -156.604 
0.000405279      1.68467     -168.357 
0.00426562      1.69650     -168.094 
0.00237955      2.18662     -175.541 
0.00358593     0.272947      171.573 
0.00565781      2.04365     -171.275 
0.00229680      2.55566     -176.186 
 0.0105018      1.46874     -173.746 
0.00489442      1.13159     -176.961 
0.00229629      1.39463     -165.466 
0.00103998      2.69180     -156.578 
0.000646240      2.43249     -177.408 
0.00533841      2.70496     -156.468 
0.00111931      2.19584     -175.821 
0.000164460      2.54503     -176.396 
0.00208983      2.56564     -176.201 
0.00882172      2.49393     -157.857 
0.000604589      2.18586     -175.802 
0.00127782      1.39216     -165.864 
0.00377052      2.40208     -177.614 
0.00231277      2.87406     -166.109 
0.00642138      2.19513     -176.082 
0.000565145      1.70628     -168.163 
0.000918486      1.17427     -175.115 
0.00492226      1.71814     -167.905 
0.00258134      2.58627     -176.009 
0.00314210      1.12161     -176.934 
0.00329170     0.264764      169.114 
0.00163038      1.38004     -166.165 
0.00274915      2.05507     -171.042 
0.00420796      2.40027     -170.891 
0.000377973      2.69765     -162.304 
0.00129309      2.86196     -166.255 
0.00647096      1.17516     -174.629 
0.00337630      2.80494     -161.500 
0.000347847      1.37768     -166.569 
0.00597709      2.71413     -156.552 
0.00156781      1.36795     -166.472 
0.00586465      2.84016     -166.355 
0.00239656      2.37895     -171.052 
0.00205618      2.06652     -170.811 
0.000396737      1.55425     -172.235 
0.00148858      2.60693     -175.820 
0.000562798      1.35591     -166.784 
0.000623761      1.56416     -172.284 
0.000935919      1.34618     -166.686 
0.00124527      1.11162     -176.906 
0.00261380     0.274591      169.509 
0.000920459      1.57407     -172.333 
0.00254862      2.07800     -170.583 
0.000989189      1.73980     -167.721 
0.000686639      1.33645     -166.588 
0.00186661      2.40169     -177.852 
0.00128041      2.61691     -175.836 
0.00197835      2.80813     -161.307 
0.000978446      2.39040     -170.853 
0.000423115      1.32673     -166.487 
0.00190996      1.73003     -167.651 
0.00103349      1.58398     -172.381 
0.000707919      1.40132     -162.987 
0.00139738      1.29757     -166.178 
0.000692820      2.96892     -165.168 
0.000188464      2.61885     -162.672 
0.000802665      1.05019      178.909 
0.00107677      2.36907     -171.015 
0.000190048      2.08787     -170.628 
0.00216160      2.08952     -170.357 
0.000815024      2.18515     -176.064 
0.000811090      2.63759     -175.651 
0.00127902      1.59389     -172.429 
0.000160453      2.60634     -162.816 
0.00679444     0.100499      5.71059 
 0.0325796     0.343657     -171.634 
 0.0134007     0.333766     -171.384 
 0.0150302     0.332415     -173.089 
 0.0289786     0.311448     -174.472 
0.00129354     0.364005     -164.055 
0.000275367     0.300167     -178.091 
0.000667321     0.290000     -180.000 
0.000245966     0.280178      177.955 
 0.0121595     0.280000     -180.000 
0.00143309     0.351710     -165.174 
0.00123095     0.211896      160.710 
0.000573701    0.0824621      165.964 
0.00111693    0.0921954      167.471 
0.00410264     0.101980      168.690 
 0.0102226     0.104403      163.301 
0.00716340     0.107703      158.199 
 0.0111510    0.0800001      0.00000 
 0.0128134     0.111803      153.435 
0.00107853    0.0806227     -7.12501 
 0.0102750    0.0900001      0.00000 
0.00414533     0.100000      0.00000 
 0.0148722     0.120416      4.76364 
 0.0103249      2.30339     -159.677 
0.00501531      2.51432     -169.226 
0.00469603      2.50264     -169.408 
0.000367504      2.35919     -170.977 
0.00304175      2.91494     -171.119 
0.00122114      2.14394     -169.791 
0.000500869      2.34776     -171.180 
0.00886571      3.03488     -159.356 
0.00336180     0.941488     -167.735 
0.00101714      2.53584     -169.089 
0.00110792      2.33636     -171.384 
0.00922725      2.29401     -159.590 
0.000329123      2.32499     -171.591 
0.00172369      2.23808     -175.130 
0.000469338      2.13410     -169.743 
0.00434031      2.92638     -170.956 
0.00175240      2.12250     -169.961 
0.00452639      1.63306     -176.489 
0.00700304      2.23725     -175.385 
 0.0107180     0.953415     -167.276 
0.000699951      1.57690     -169.403 
0.000526340      2.35765     -171.217 
0.00185738      1.58673     -169.469 
0.00189254      2.45791     -169.925 
0.000803018      2.11092     -170.181 
0.000119032      2.41338     -170.460 
0.000341250      1.46014     -166.535 
0.000113503      1.63371     -176.139 
0.00251144      2.94771     -170.825 
0.00342616      3.02200     -159.466 
0.000945188      1.45041     -166.443 
0.000421253      2.10107     -170.134 
0.000808978      1.59656     -169.535 
0.00262903      2.66267     -161.837 
0.000955197      2.44632     -170.114 
0.00265960      2.28464     -159.503 
9.89726e-05      2.69537     -167.356 
0.000195346      1.45279     -166.059 
0.00123354      2.75305     -166.771 
0.00271405      2.71774     -173.450 
0.00187600      1.44309     -165.964 
0.00118535      1.60462     -169.951 
0.000178473      2.32215     -172.079 
0.000350256      2.98639     -164.661 
0.000486497      2.49098     -169.592 
0.000438411      1.64305     -176.511 
0.000455690      2.33345     -171.870 
0.00464363      2.95919     -170.665 
0.000686129      2.70692     -161.699 
0.000591835      2.43477     -170.306 
0.00168939      1.64247     -176.859 
0.00288749      2.22576     -175.878 
0.000242879      3.02063     -164.445 
0.000214850      2.74104     -166.927 
0.00205066      2.71956     -161.565 
0.000380848      2.34478     -171.663 
7.87242e-05      2.35614     -171.457 
0.000232135     0.335261     -162.646 
0.000439058      3.03295     -164.314 
0.000770135      1.61447     -170.013 
0.000910519     0.347851     -161.565 
0.000993757      2.42324     -170.499 
0.00111430      1.43339     -165.867 
0.00269639      2.41174     -170.694 
0.000613108      2.26241     -159.563 
0.00273888      2.22506     -176.135 
0.000137695      2.06814     -170.538 
0.000467493      1.65194     -177.224 
0.000199289      3.04529     -164.184 
0.000263485      2.97069     -170.506 
6.62774e-05      2.38883     -171.090 
0.00476076     0.500100      168.465 
0.000108189      2.35468     -171.698 
0.000722111     0.508035      169.796 
0.000107212      2.31948     -172.569 
0.000106157      2.30829     -172.783 
0.000514762      2.29593     -173.246 
0.000994889      1.22691      173.918 
0.000203989      2.55932     -168.734 
9.97727e-05      2.36603     -171.493 
9.91739e-05      2.27271     -173.938 
0.00170483      2.57109     -168.559 
 0.0103193     0.498197      169.592 
0.000194796      2.26073     -174.415 
0.000436484      2.24891     -174.898 
0.000189586      2.61633     -168.089 
0.00316055      1.21696      173.868 
0.000184783      2.62819     -167.920 
0.000733565      2.66175     -167.635 
0.00150523      2.31625     -159.531 
0.00223672      2.67367     -167.471 
0.00202514      2.70732     -167.196 
0.00144348      1.00125      177.138 
0.00109157      2.66372     -174.182 
0.00122881      2.09122     -170.087 
0.000791365      2.07966     -170.311 
0.00122006     0.963172     -167.407 
0.000570402      3.07963     -163.978 
0.000379726      2.67470     -173.991 
0.000260059      1.66108     -177.930 
0.000564353     0.354683     -158.499 
0.000562012      1.63417     -170.134 
0.000369625      1.65109     -177.917 
0.000428087      1.20814      173.346 
7.82252e-05      2.36457     -171.733 
7.76351e-05      2.27167     -174.189 
7.73120e-05      2.38730     -171.327 
0.00112389     0.364005     -159.075 
0.00400078     0.367695     -157.620 
0.000183604      2.21508     -176.117 
0.000695554      2.43310     -170.538 
0.00287573      2.21443     -176.375 
0.00400988      2.71930     -167.037 
0.00223157      2.06981     -170.265 
0.00140406      2.20384     -176.618 
0.00111447      2.04841     -170.446 
0.000121686      2.38581     -171.564 
0.000354587      2.39719     -171.363 
2.66557e-05      2.31698     -173.059 
0.000100178      2.44463     -170.345 
2.48707e-05      2.28265     -173.965 
0.00225444      3.18159     -173.322 
0.00404967      2.89339     -177.227 
0.00591965      3.17050     -173.480 
0.00492979      2.90388     -177.039 
0.000935081      3.29091     -172.141 
0.000283297      3.15945     -173.640 
4.40274e-05      3.13847     -173.781 
0.000411112      3.12746     -173.943 
0.000187080      3.11647     -174.106 
0.00992584     0.164924      104.036 
0.00396184      2.80585     -172.216 
0.00430077     0.255539     -120.579 
0.00444275      1.20702      173.817 
0.000612510      1.62779     -171.521 
0.000931210      1.63918     -171.227 
0.00114685     0.963016     -164.954 
0.00429954      1.19821      173.290 
0.00218804      3.05110     -175.112 
0.000651937      2.30361     -173.770 
0.000464648      1.71003     -179.665 
0.000774724      1.65061     -170.937 
0.00718188     0.158114      108.435 
0.00213167      1.07787     -173.073 
0.00159813      1.70000     -180.000 
0.00148408     0.975295     -164.539 
0.00113461      2.31465     -173.550 
0.000148772      1.65221     -170.595 
0.000415453      1.66208     -170.651 
0.000517228      2.68561     -167.309 
0.000785887      2.79460     -172.392 
0.00100029      1.07671     -173.601 
0.00140114     0.161555      111.801 
0.000882253      1.66373     -170.311 
0.00318050     0.261725      173.418 
7.76342e-05      2.69757     -167.149 
0.000319171      1.69000     -180.000 
0.000210346      2.78338     -172.569 
7.17059e-05      3.06193     -174.941 
0.000564688      2.98739     -175.969 
6.87193e-05      3.07278     -174.772 
0.000101810      2.28116     -159.738 
 0.0309461      1.91638     -164.876 
0.00107120      1.92603     -164.954 
0.00295320      2.02529     -166.581 
0.000202078      1.90672     -164.798 
0.000313017      1.91901     -164.588 
0.00176701      1.97408     -163.217 
3.37119e-05      1.89447     -165.010 
0.000860370      1.78997     -166.430 
0.000923012      1.78025     -166.354 
0.00195649     0.161245      119.745 
0.00286616     0.158114      124.695 
0.00494153      2.26808     -167.005 
0.00141066      2.28009     -166.817 
0.00295361      1.06569     -174.075 
0.00137060      1.61124     -173.228 
0.00386092     0.156525      116.565 
0.000502279     0.974166     -162.681 
0.00170074      1.60131     -173.186 
0.00339988     0.270740      175.764 
0.00236725      2.77346     -172.542 
0.00164796     0.983717     -162.854 
0.000556922      1.60016     -173.541 
0.000100107      2.63797     -167.966 
0.00128867      2.64985     -167.800 
0.000802727      2.30471     -173.523 
0.000551736      2.31579     -173.305 
0.000239265      1.71353     -176.319 
6.46272e-05      1.72351     -176.341 
9.29539e-05     0.280713      175.914 
0.00133508     0.253180      170.910 
0.000607453      3.30619     -166.888 
0.00310653     0.152643      121.607 
0.00274182      3.42608     -170.593 
0.00483178      3.32051     -166.592 
0.000240154     0.156205      129.806 
0.00389987     0.152315      113.199 
0.00124471      3.41459     -170.731 
0.000602723      3.05197     -174.925 
0.00137468      1.59138     -173.143 
0.000685775      3.04113     -175.096 
0.00125266      2.32362     -166.562 
0.000114902      3.03117     -175.079 
0.000558161      3.02036     -175.252 
0.000289405      2.74243     -172.668 
0.000996221      3.33024     -166.631 
0.00154598      1.08904     -172.614 
0.000996331     0.259422     -117.553 
0.000584823      1.70106     -177.979 
0.00114546      1.69106     -177.967 
0.000675412     0.362491     -155.556 
0.000346995     0.181108     -6.34019 
0.00516353     0.463896      172.569 
0.000574085      2.73125     -172.849 
0.000823543     0.182483     -9.46232 
0.000913151      1.59261     -172.786 
0.000588074      3.42446     -170.758 
0.000741369      3.34229     -166.504 
0.000702852      2.31158     -166.745 
8.62035e-05      2.66610     -167.215 
8.48852e-05      3.14841     -173.800 
5.66378e-05     0.980306     -161.565 
0.000165851      3.00958     -175.426 
0.000286961     0.375766     -154.799 
0.000159795      2.68782     -167.101 
0.000207700     0.983514     -161.012 
0.000179213      3.19152     -173.343 
0.000690323      2.99883     -175.601 
7.45779e-05      2.69981     -166.942 
0.00654676     0.147648      118.301 
0.00205893     0.148661      109.654 
   1.06702    0.0199999     -180.000 
  0.540397    0.0141421      135.000 
 0.0490483   0.00999997     -180.000 
 0.0350532    0.0223606      153.435 
0.00317232    0.0316228      161.565 
0.00457647      0.00000      0.00000 
0.00153968    0.0412310      165.964 
0.00151061    0.0806225      172.875 
0.00437747     0.111803      169.695 
0.00291792    0.0100001      0.00000 
0.00419987    0.0200000      0.00000 
0.00280050     0.121655      170.538 
0.00403869     0.131529      171.254 
0.00400779    0.0300000      0.00000 
0.00511066     0.141421      171.870 
0.00383361    0.0400001      0.00000 
0.00603943    0.0500000      0.00000 
0.00599734     0.151327      172.405 
0.00673385    0.0600000      0.00000 
0.00669027     0.161245      172.875 
0.00822582    0.0700000      0.00000 
0.00106590     0.171172      173.290 
 0.0714905     0.180278      176.820 
 0.0173106     0.181108      173.660 
 0.0104251     0.110454      5.19443 
 0.0188794     0.130384      4.39871 
0.00220183     0.310644     -176.309 
0.00124516     0.300666     -176.186 
0.00351694     0.270185      177.879 
0.00222149     0.290172     -178.025 
0.000536285     0.301496     -174.289 
0.000418604     0.370000     -161.075 
0.00206708     0.233452      170.134 
0.00135795     0.150000      126.870 
0.00285081     0.241868      172.875 
0.00268809     0.260768      175.601 
0.00110840     0.155242      104.931 
0.000768944     0.280178     -177.955 
0.000296049     0.360555     -160.560 
0.00306507     0.254951     -115.560 
0.000187663     0.155563      135.000 
0.00208108     0.250799     -113.499 
0.00102192     0.251794      173.157 
0.00105851     0.148661     -19.6538 
0.00203490     0.144222      123.690 
0.00199490     0.237697     -112.249 
0.00124754     0.250799      175.426 
 0.0103123     0.143178      114.775 
0.00204720     0.234094     -109.983 
0.000429761     0.221359     -108.435 
0.000598171     0.260192      177.797 
0.000459397     0.139284     -68.9625 
7.30833e-05     0.270000     -180.000 
0.00379044     0.336155     -22.7510 
0.00389148     0.715891     -151.645 
0.00245958      3.02552     -159.289 
0.00210617      3.28672     -166.809 
0.000161788      3.06283     -174.755 
0.000100191      3.17166     -173.301 
0.00115038      1.70144     -177.642 
4.81973e-05      3.18277     -173.143 
0.000141106      3.03033     -175.268 
0.000139894      3.20383     -173.008 
0.00112310      2.05353     -171.317 
0.000223037      3.01955     -175.441 
0.000266595      3.03842     -159.179 
0.000261615      3.21498     -172.853 
0.00211860      1.74957     -167.791 
0.000435774      3.22616     -172.699 
8.06176e-05     0.332415     -21.1613 
0.000310810      3.04120     -163.770 
0.000854227      1.60515     -172.122 
0.00103861     0.323110     -21.8014 
0.000593500     0.326956     -23.4287 
0.000329246      2.98811     -175.778 
0.000709545      3.23736     -172.546 
0.000600931      3.05360     -163.642 
0.000201034      3.05133     -159.070 
0.000581784      2.99808     -175.792 
0.000416977     0.465296      171.347 
0.000445567      2.57309     -168.341 
0.000534392      2.04216     -171.552 
0.000497168      1.71143     -177.656 
6.30770e-05      3.06425     -158.962 
0.000341954      3.13268     -158.267 
0.000395434      3.24858     -172.394 
0.000200652      3.05644     -163.462 
0.000107193      3.06888     -163.337 
0.00128930     0.147648     -28.3008 
0.00609752      3.59347     -173.449 
0.00177262     0.139284      111.037 
0.000481503     0.241661     -114.444 
0.000178788      3.47386     -174.880 
0.00379757     0.733553     -152.387 
0.000471557      3.60455     -173.309 
5.80788e-05      3.45306     -175.016 
0.00515357     0.125300     -28.6105 
0.000334381      3.44224     -175.167 
0.000410494      3.61566     -173.170 
0.00195227     0.485077      171.703 
0.000461329      3.43144     -175.320 
0.000697884      3.62679     -173.032 
0.000803140      3.42067     -175.473 
0.000458111      3.63794     -172.895 
0.000845357     0.268328     -116.565 
0.000246464      3.62802     -172.875 
0.00197431      3.40993     -175.627 
0.00238536      3.63919     -172.738 
0.000750020     0.138924      120.256 
0.000435035     0.281780     -117.474 
0.00126907     0.475184      171.529 
0.00104058     0.304138     -117.408 
0.000390251      3.39921     -175.782 
0.00113966      1.62111      177.879 
0.00199363      2.96744     -175.942 
0.000165397      2.44965     -171.076 
0.000592618      1.75411     -176.077 
0.00394240     0.224722     -110.854 
0.00164657      1.61199      177.155 
0.000796020      2.43824     -171.272 
0.000546816     0.215407     -111.801 
0.000386498      1.76479     -175.776 
0.00136494      1.76556     -175.452 
0.000439652     0.122066     -34.9920 
4.45310e-05      1.74155     -169.077 
0.000457329      1.75328     -168.818 
0.000359310      2.43674     -171.504 
0.000940330      1.75482     -175.752 
0.000606227      1.75525     -168.498 
0.00106737      2.95677     -176.121 
0.000494410      1.61251      176.800 
0.000738487      1.76706     -168.245 
0.000521896      2.42539     -171.703 
0.000353429      1.60312      176.424 
5.62002e-05      1.86188     -173.524 
0.000400208      3.11859     -173.741 
0.000108349      2.94679     -176.108 
0.000320098      1.86304     -173.218 
0.000393839      1.73289     -176.692 
0.000725785      2.41406     -171.903 
7.84835e-05      2.94613     -176.302 
0.000268780      2.93615     -176.290 
2.46900e-05      2.40277     -172.106 
0.000187561      1.77890     -167.995 
2.42554e-05      2.39019     -172.548 
0.000115581      2.37899     -172.755 
9.09514e-05      2.93552     -176.485 
2.24048e-05      1.59452      175.684 
0.00317522     0.367696     -22.3801 
0.00154624     0.473814      172.725 
0.00158135     0.143178     -24.7751 
0.000827745     0.145602      105.945 
0.000381264      2.41267     -172.139 
3.29876e-05      2.47421     -170.462 
0.00115593      2.47588     -170.233 
9.38093e-05      2.40142     -172.342 
0.000113242      2.37775     -172.995 
8.82753e-05      3.49468     -174.746 
8.73518e-05      2.36662     -173.205 
0.000726662      3.48382     -174.895 
0.000877669      2.31050     -174.536 
0.000453198      3.65038     -172.602 
-0.00697053     0.441475      13.0919 
-0.00164149     0.625859     -167.074 
-0.00543005     0.635610     -167.276 
-0.00484528      1.23556     -101.674 
0.00270927      4.93705     -97.9167 
0.00169007     0.674759     -129.588 
-0.000867591     0.439318      11.8215 
0.00108461     0.990404     -78.3497 
0.00265606      2.72969     -145.146 
-0.00276094     0.600000      0.00000 
-0.00339271      1.44693     -49.4846 
0.00182894      3.67822     -138.858 
0.000735716      1.48772     -112.946 
-0.000916638      3.99846      66.2558 
-0.00213525      4.53097     -76.7305 
-0.00181938      5.23536     -147.797 
0.000502343      6.17234      178.422 
-0.000593501      3.29097      125.477 
-0.00146971      2.70407     -97.6507 
-0.00151324      4.55303      140.436 
0.000769868      3.73134      178.464 
0.000679637      1.92855      144.497 
-0.000575302      2.87089      148.968 
0.00107847      4.70218     -60.4365 
0.00191914     0.988433     -78.9174 
0.000728746      2.14000     -90.0000 
-0.000647952      4.52355     -76.5782 
0.000446767      4.29471     -115.073 
0.000623091      1.48385     -112.590 
-0.000547271      2.52907      97.0407 
-0.00174814      5.07501      175.593 
-0.00104333      3.79012     -61.4740 
0.00121635      6.19207      178.519 
0.000189143      2.96250      118.641 
-0.000913551      3.28518      125.335 
-0.000606108      3.99445      66.3870 
-0.000500236      6.89322      158.646 
0.00118789      2.95772      118.471 
0.00267273      1.93093      144.911 
9.17582e-05      1.80967     -150.177 
0.00139926      4.89037     -89.2970 
0.000353524      3.74108      178.621 
0.00117078      6.26173      159.626 
-0.000894792      2.86751      148.694 
0.000433183      4.65826     -137.784 
0.000812437      1.85744     -110.484 
0.000819960      1.81835     -150.333 
0.000337327      1.39169     -7.43141 
0.000173345      2.78548      67.8548 
-0.000729270      2.17412      50.5993 
-0.000500806      2.70647     -41.4050 
0.000247867      6.25585      159.508 
-0.00102563      1.17958      7.30576 
-0.00120946      1.94041     -88.8188 
-0.000713360      3.08058      72.6238 
0.000457712      2.39353     -151.829 
-8.45834e-05      5.21311     -147.773 
0.000685784      3.75108      178.625 
-0.00114532      1.65849     -110.839 
-0.000952429      2.53032      97.2654 
0.00171003      1.85397     -42.8142 
0.000948230      6.48778     -175.757 
-0.00122559      5.22690     -147.739 
8.30954e-05      6.22200      143.167 
0.000994443      4.65086     -137.701 
-0.000469817      3.31883     -128.148 
0.00117791      2.70276      7.44055 
0.000382047      1.16297      27.6668 
-0.00212426      3.79473      71.5651 
-0.000312548      3.31079      76.5514 
0.000585291      2.14002     -90.2677 
-0.000539343     0.645368     -167.471 
0.000448556      4.92578     -97.8176 
0.000154949      2.53148      64.2447 
0.000585879      2.93861     -154.394 
0.000724564      6.21400      143.112 
-0.000457383      1.22376     -101.310 
0.000776414      5.23087     -146.067 
-0.00106923      1.25419      127.875 
-0.000370677      1.35204     -172.349 
-0.00227300      2.69007     -90.4260 
-0.000524609      3.98664     -93.3074 
-0.000513138      2.70562     -41.7039 
0.000378994     0.588982      40.1792 
-0.000154223      5.80056     -159.409 
-0.000910093      2.70542     -97.8605 
0.000524429      2.06410      40.4809 
-0.00179547      5.08422      175.714 
-0.00120222      5.80992     -159.444 
-0.000842762      3.78535     -61.6070 
0.000280633      1.40161     -7.37854 
-0.000637098     0.579741      104.995 
-0.000364121     0.590000      0.00000 
-0.000570673      2.18197      71.5650 
0.000567615      2.95373      118.734 
-0.000752588      4.00106     -162.697 
-0.000366031      6.06040      126.208 
0.000144478      4.29895     -115.194 
0.000212224      1.49693     -112.797 
-7.52273e-05     0.848528     -171.870 
0.000353587     0.783390      14.0362 
0.000489772      1.81342     -150.608 
-0.000951588      3.30847      76.7198 
-0.00121660      5.26875      136.000 
-0.000350028     0.838630     -171.773 
0.00165215      2.57031      42.0038 
0.000783184      1.84459     -110.302 
0.000528916      2.71577     -145.198 
0.000869541      5.51552      121.356 
0.000620993     0.581378      40.8151 
7.20759e-05      3.94534     -62.2009 
0.000556398      4.70712     -60.3306 
-0.000998930      4.60825     -118.233 
-0.000192067      5.68802     -126.709 
-0.000343207     0.633482     -168.158 
0.000323294      3.43919      50.6637 
-0.000209229      2.16005      50.6359 
-0.000274844      3.08359      72.4465 
-0.00139848      1.99040      106.341 
0.000659864      4.88066     -89.0608 
0.000924240      3.94118     -62.0045 
-0.000575437      1.23227     -38.0789 
-0.000515271      2.87606      148.797 
-0.000403589      2.07663      118.787 
-0.000274993      5.23004     -54.7298 
-0.000807676      3.99721     -93.4422 
0.000396376      4.29665      172.511 
0.000338818      4.65760     -137.610 
-0.000394815      6.05826      126.340 
0.000265162      5.66634      153.028 
-0.000312148      3.33287     -128.177 
-0.000509635      2.99282     -11.7605 
-0.000738884      4.56075      140.516 
6.83495e-05      2.53584      64.0412 
-0.000327204     0.580000      0.00000 
0.000628232      4.92443     -97.7023 
0.000703502      3.87587      133.746 
0.000648052      4.11754     -69.2322 
-0.000635670      1.70144      92.3579 
6.66841e-05      3.68576     -138.960 
0.000194742      4.20862     -83.3140 
-0.000124991      3.27941      125.192 
0.000570338      3.61137      71.2640 
-6.62055e-05      2.71398     -41.2654 
0.000729249      5.29741      70.7100 
-0.00126440      5.23582     -54.6404 
-6.56229e-05      6.15179     -155.101 
-0.000475650      3.81938      59.4736 
0.000249676      2.14009     -90.5355 
0.000548565      2.94893      118.564 
-0.000496246      2.16640      50.4315 
6.50566e-05     0.793095      13.8610 
0.000375537     0.573847      41.4677 
0.000628771      7.40493     -139.491 
0.000494734      4.65021     -137.527 
-0.000372033      6.14272     -155.062 
-0.000252933      6.45182     -174.307 
-0.000307636      3.08662      72.2695 
-0.000480985      2.53160      97.4900 
-0.000478754     0.643273     -168.341 
-0.000858640      2.16933      71.7321 
-0.000578330      6.75557     -136.619 
0.000294058      2.94763     -154.478 
0.000399863      6.27111      159.658 
-0.00114625      1.44589     -48.9259 
0.000295604      1.14948      27.4567 
-0.000247265      2.07183      118.544 
0.000237982      3.76108      178.629 
0.000603833      6.55629      171.845 
0.000247161      1.86132     -42.6050 
-0.000419248      2.06874      174.730 
0.000671839      2.71267      7.41320 
0.00143962      3.17277     -130.014 
0.000298713      1.82214     -150.762 
-0.000294347     0.828734     -171.674 
-0.000469271     0.577235      104.036 
0.000243434      1.37481     -23.5817 
0.000299881     0.790759      13.1575 
-0.00105017      4.28137     -69.4909 
-0.000474156      2.70681     -98.0702 
0.000120312      4.37005      39.3355 
-0.00166957      1.72409      106.858 
-0.000533747      2.97558     -58.6069 
-0.000461969      3.78471     -61.9453 
0.000404160      4.20980     -83.1788 
-0.000633088      3.30619      76.8885 
-0.000910632      1.24808      127.513 
-0.000178531      6.53303      137.543 
-0.000333018      6.06419      126.416 
-0.000577341      6.44187     -174.298 
6.08137e-05      6.21181      178.616 
0.000399440      4.28674      172.494 
-0.000234683     0.570000      0.00000 
0.000559625      5.51744      121.587 
0.000384827      6.47781     -175.751 
6.05370e-05      5.67073      153.164 
0.000356990      1.49308     -112.443 
0.000342756      1.86078     -43.0401 
0.000563242      3.59551      71.5147 
0.000274440     0.986560     -79.4874 
-5.94285e-05      1.94023     -89.1141 
0.000391524      4.88083     -88.9434 
-0.000709030      2.07589      118.170 
0.000117689     0.566392      42.1376 
-0.000231166      2.77950     -103.736 
-5.88825e-05      2.68151     -43.0355 
0.000115671      5.49824     -61.8969 
-0.000116643      1.72122      106.540 
0.000419238      2.72399     -145.318 
-0.000340494      6.13365     -155.023 
0.000400213      2.88111     -88.4089 
0.000856875      3.45326      50.6406 
0.000704963      4.64284     -137.444 
5.83145e-05      1.18119     -28.3008 
-0.000319750      5.24915     -147.763 
-0.00105505      5.27595      136.075 
0.000282772      1.36565     -23.7495 
0.000281934      2.90000     -53.1301 
0.000368645      6.85216      134.468 
0.000168681      2.14021     -90.8032 
-0.000279301      4.76471     -98.6913 
-0.000326213      3.00262     -11.7216 
-0.000414802      2.87272      148.523 
-0.000222255      3.08968      72.0928 
-0.000503071      4.01061     -162.740 
0.000223512     0.573149      42.8789 
0.000113349      5.54655     -171.811 
-5.68904e-05      2.67380     -43.4846 
0.000426909     0.800500      12.9946 
-0.00105531      2.97039     -58.7716 
0.000111105      4.22019      103.707 
0.000317891      5.66181      153.118 
0.000156503      4.36232      39.4188 
-5.56623e-05      2.67346     -43.7876 
-0.000320915     0.560000      0.00000 
-0.000653378      2.07870      174.756 
-0.000373501      2.77714     -103.536 
0.000323239      5.55645     -171.826 
-0.000461786      2.70823     -98.2797 
5.53427e-05      1.17720     -28.9601 
0.000266859      1.83087     -150.915 
0.000257122      2.94416      118.393 
-0.000215611      4.48018     -52.6185 
-0.000256559      6.54041      137.603 
0.000217991      2.88141     -88.2101 
-0.000160502      2.66625     -43.9363 
0.000107955      6.43518     -140.422 
0.000314620      1.08706      129.401 
-0.000205314     0.818841     -171.573 
-0.000309221      5.86924      145.552 
0.000161320      2.90601     -52.9724 
-0.000106966     0.715681      172.776 
-0.000208233      2.53292      97.7142 
5.43291e-05      1.19000     -28.0725 
-0.000366783      6.43192     -174.289 
-0.000107314     0.653070     -168.518 
0.000262039      1.93670      144.669 
-0.00149163     0.582495      101.889 
0.000211414      1.35650     -23.9196 
-0.000363885      6.12459     -154.983 
-0.000360540      3.78001     -62.0791 
0.000357846      4.22257      103.839 
0.000206714      2.14037     -91.0708 
0.000105714      3.41621      164.377 
0.000205207      1.86810     -42.8307 
0.000701986      1.84808     -110.592 
0.00243231      2.87211     -87.8051 
-0.00166571      4.76624     -98.8101 
-0.000560190      3.30394      77.0574 
0.000209128     0.565862      43.5679 
-0.000155603      3.14086     -103.815 
0.000103636      3.77107      178.632 
0.000351168      4.21100     -83.0437 
-0.00102971      3.83308      59.4208 
-0.000356778      2.24321     -50.0636 
5.30250e-05      2.87174     -88.0044 
-0.000674328      5.67861      147.513 
-0.000204072      6.41144     -149.956 
0.000153263      1.18596     -28.7261 
-5.26615e-05      7.74382      140.554 
-5.24057e-05      3.27365      125.049 
0.000305417      2.91015     -52.5394 
-0.000150024      5.79705     -159.502 
-0.00159551      4.48208     -52.7977 
0.000200644      2.23007     -145.597 
-0.000199959      3.09277      71.9166 
0.000391660      2.19545     -96.8013 
0.000347537      5.56635     -171.841 
-5.16029e-05     0.631506     -169.046 
0.000283805      1.14061      27.6884 
-0.00125040      1.71747      107.274 
5.14660e-05      6.42882     -140.491 
0.000338497      3.59235      71.6659 
-0.000737415      2.65887     -44.3905 
0.000450799      3.94180     -61.6796 
0.000243880      3.42584      164.422 
-0.000338262     0.641327     -169.216 
0.000100017      4.87124     -88.7061 
-0.000640849      4.52869     -76.8537 
-0.000381069      1.99449      105.709 
0.000248284      1.34737     -24.0920 
0.000100453      5.51417      121.730 
-0.000244366     0.550000      0.00000 
-9.79947e-05      5.99497     -172.235 
-5.03642e-05      4.00781     -93.5763 
-0.000194913      4.36588     -47.1348 
0.000196281     0.558659      44.2748 
-0.000394163      4.56711      140.419 
0.000503911      5.60892      131.820 
-0.000746317      7.73610      140.507 
-9.84951e-05      6.41103     -174.361 
-9.82625e-05      2.77482     -103.335 
0.000329409      1.08074      128.991 
0.000289377      4.63548     -137.360 
-0.000444615      2.99488     -11.9478 
-0.000317255      3.14326     -103.992 
-9.78314e-05      6.11553     -154.943 
-9.85149e-05      6.42197     -174.281 
-4.94981e-05      2.06708      118.301 
0.000143522      1.83962     -151.066 
0.000140291      3.56204      58.8983 
0.000364606      1.93912      145.081 
-0.000319974      2.78921     -103.687 
0.000472759      2.91625     -52.3835 
-4.91673e-05      3.74242      142.273 
0.000264233      6.95147     -135.758 
0.000680651      3.18022      74.8713 
0.000486832      3.58274     -39.1094 
0.000319777      3.06472      81.3675 
9.65200e-05     0.798311      12.2953 
9.67304e-05      4.11400     -69.3625 
-0.000419600      3.77955     -62.4180 
-4.87167e-05      6.10224     -154.989 
-0.000188948      2.54152      97.4606 
-0.000317531      2.07118      117.926 
0.000405313      5.65289      153.072 
0.000518676      5.51944      121.818 
0.000129667      4.71088     -60.4965 
4.83952e-05      6.43654     -140.548 
0.000273406      6.80250      159.700 
4.83816e-05      4.27682      172.476 
-0.000141250      3.73451      142.179 
4.81862e-05      7.36213     -152.495 
0.000133418      6.42297      174.192 
-0.000352019      3.27649     -57.7166 
-9.10468e-05      6.40279     -149.911 
-0.000135288      1.24016     -37.7939 
9.48829e-05      1.19474     -28.4956 
-0.000417309      3.30171      77.2265 
0.000494512      3.98058      175.822 
-0.000226514      4.68706      157.813 
-0.000233279      6.40108     -174.352 
-0.000140620      6.09318     -154.949 
-4.77091e-05      3.84034     -128.870 
-0.000273974      2.24964     -49.8683 
0.00129972      7.36675     -152.426 
0.000438661      6.94431     -135.700 
0.000271581      4.87148     -88.5885 
0.000141334      1.33825     -24.2668 
-0.000316433      1.97995      162.663 
9.36989e-05      2.18215     -96.0502 
0.000138718      1.87545     -42.6231 
0.000495673      5.41141     -55.6932 
0.000179932     0.984784     -80.0594 
0.000318696      4.22497      103.970 
4.73477e-05      5.57624     -171.855 
0.000184421      2.22182     -145.452 
-0.00132499      3.83407     -128.753 
-0.000182823      6.76284     -136.678 
-9.25043e-05      5.42086     -144.991 
0.000399192      4.21222     -82.9087 
4.70300e-05      6.28049      159.690 
-0.000227365      2.70969     -98.4889 
0.000135832      2.14058     -91.3384 
0.000362875      5.56493     -171.943 
0.000217597      6.46784     -175.744 
0.000266126     0.808084      12.1443 
-0.000376135      5.86100      145.497 
-9.26715e-05      3.09588      71.7406 
0.000136947     0.551543      45.0000 
-0.000218613     0.808950     -171.469 
-9.24597e-05      3.78209      71.6609 
-0.000221150      2.87851     -142.055 
0.000210015      7.41254     -139.541 
-0.000267120      1.24403      126.501 
-0.000491098      1.23762     -102.127 
-0.000220833      4.35908     -47.2312 
0.000180340      1.32914     -24.4440 
9.00554e-05      2.72259      7.38604 
-0.000377238      6.54780      137.662 
0.000307142      4.64226     -137.270 
-0.00124951      3.77896      71.8048 
4.55666e-05      4.36689     -74.5953 
-0.000255606     0.540000      0.00000 
-0.000177385      6.08412     -154.909 
-0.000387619      3.22093      165.619 
9.03039e-05      1.22544     -27.1924 
0.000339516      3.43548      164.467 
-8.90287e-05      3.72662      142.085 
0.000131740      1.84838     -151.216 
0.000594747      2.92236     -52.2282 
-0.000218829      6.39113     -174.343 
-0.000435896      2.69017     -90.6390 
8.55940e-05      4.26691      172.459 
-0.000737675      2.96522     -58.9368 
0.000132202      2.18112     -95.7890 
0.000434737      2.71831     -145.491 
4.46696e-05      6.58459      171.968 
4.46731e-05      3.79084      178.791 
-4.46721e-05      6.06210      126.549 
-0.000257780      2.54283      97.6840 
-0.000131112      3.11169      71.4486 
-0.00131565      3.29952      77.3959 
4.44581e-05      4.11637     -69.6720 
0.000565832      3.16635     -129.875 
-8.85138e-05      3.77493     -62.5525 
-0.000293677     0.651153     -169.380 
4.41887e-05      1.23434     -26.9802 
-0.000630097      1.99722      105.985 
0.000254924      1.88282     -42.4170 
-0.000339634      4.73152     -155.927 
0.000665283      3.45961      50.5125 
-4.38794e-05      6.83615      149.496 
4.38814e-05     0.496488      55.6698 
-8.66817e-05      2.53340      31.9335 
0.000201399      5.38095      66.9133 
0.000202774      4.36955     -74.4689 
-0.000416491      3.77465     -62.8919 
-4.34945e-05      5.80642     -159.536 
-0.000898398      2.11766     -41.7459 
4.34664e-05      2.93942      118.222 
4.33742e-05      1.32004     -24.6236 
8.60999e-05      1.07615      127.828 
0.000127199      5.15272      142.174 
0.000515763      5.57484     -171.957 
0.000124151      2.21359     -145.305 
4.32045e-05      3.55688      59.0362 
-4.31360e-05      6.77698     -136.674 
7.63233e-05      6.65364     -146.214 
8.53937e-05     0.544518      45.7440 
0.000559653      6.59449      171.980 
-0.000397265      5.24161     -54.5513 
-0.000168725      6.84477      149.539 
4.29430e-05      1.24326     -26.7711 
-0.000163742      1.25160     -67.9436 
-0.000498967      6.49788      129.693 
0.000405105      4.22740      104.102 
4.28429e-05      3.58922      71.8175 
-0.000287994      6.07506     -154.869 
-0.000124914      2.71118     -98.6980 
-0.000243224      2.25499     -49.3160 
0.000166264      2.19429     -96.5420 
-0.000628404      5.69860      147.760 
-0.000205212      6.33593      158.131 
0.000126338      1.25220     -26.5651 
-0.000277293      2.08866      174.781 
-8.38742e-05      3.71874      141.990 
-4.24637e-05      2.56416      31.7685 
-8.26357e-05      5.42905     -145.051 
8.10155e-05      6.24157      178.715 
-8.39732e-05      2.59494      31.6075 
0.000161752      1.13177      27.9236 
0.000124907      1.62825      117.824 
-0.000309693      1.97041      162.577 
8.29384e-05      1.60655     -98.2310 
0.000356877      5.41706     -55.6059 
-0.000338342      4.27907     -69.1932 
-0.000244242      6.38118     -174.334 
0.000201929      4.36519      51.7912 
-0.000306889      6.78425     -136.732 
-0.000381399      1.23810      126.129 
0.000387529      1.07005      127.405 
0.000316493      3.97146      42.2446 
0.00115204      3.17762      75.0454 
-0.000789720      2.86447     -142.090 
-8.28647e-05      1.45248     -48.6285 
0.000158446      4.87173     -88.4709 
-8.00898e-05     0.681542     -112.426 
0.000678266      3.99055      175.833 
8.19277e-05      4.26919      108.859 
-0.000162668      4.03517      173.597 
-0.000230442      2.17249      71.4816 
-0.000120796      2.78686     -103.488 
0.000259741      3.57060      58.9812 
8.14848e-05      4.94065      144.058 
0.000240326      1.26115     -26.3619 
-0.000163564      2.63427      31.3368 
0.000304549      4.72128      124.734 
0.000192913      6.41303      174.183 
0.000493169      4.63492     -137.186 
8.18951e-05      2.30217      129.359 
0.000119857      1.85715     -151.365 
-0.000377343      1.24808     -37.5126 
4.11894e-05      3.78428      25.3462 
0.000558340      5.64398      153.026 
-0.000636296      2.65174     -44.5416 
8.01907e-05     0.538145      48.0128 
-0.000196769      4.04361     -139.614 
-8.06734e-05      2.39176      40.0816 
-4.08832e-05      4.02016     -162.782 
-0.000522986      6.85339      149.581 
0.000268121      1.94733      145.249 
-0.000219263      3.11488      71.2742 
4.07501e-05      5.16062      142.242 
4.07559e-05      6.40291     -158.564 
0.000262552      6.81188      159.729 
0.000271172      4.21347     -82.7738 
8.01866e-05      2.93886      117.786 
0.000445589      5.60815      131.964 
-0.000119852      3.70135      141.582 
-7.92777e-05      1.18089      7.78702 
-8.00037e-05      4.22896      174.573 
4.05252e-05      1.62361      117.512 
-0.000269572      2.54419      97.9072 
0.000196842      1.89021     -42.2125 
0.000414631      1.27012     -26.1616 
-0.000270433      4.74065     -155.976 
0.000196088      5.06172     -129.066 
0.000375066      2.29584      129.166 
-0.000234757      4.71239     -114.444 
7.97114e-05      1.62339      116.723 
-0.000235437      2.66511      31.1850 
-0.000257490      1.45165     -48.0715 
-0.000478406     0.530000      0.00000 
0.000292212      5.17035      142.465 
-3.98956e-05      2.42043     -69.6933 
0.000363880      3.59050     -39.0087 
0.000190326     0.531507      48.8141 
0.000325169      1.85162     -110.882 
-0.000291259      4.77963      129.652 
3.96246e-05      3.79332      25.2815 
-0.000257674      3.23785      165.878 
-7.75020e-05      4.35290     -47.5138 
-3.94643e-05      4.09959      51.5366 
0.000548706      2.92850     -52.0735 
0.000116584      1.61892      116.407 
-3.93004e-05      4.06389      173.784 
0.000114593      4.25699      172.441 
-0.000150252      2.71271     -98.9067 
-7.74132e-05      3.39912     -149.210 
-0.000190159      3.64726      93.6155 
-0.000257166      3.14570     -104.169 
-0.000722231      6.06601     -154.829 
0.000576533      2.13528      94.0283 
0.000250304      4.27243      108.986 
-3.90969e-05      6.39414     -149.866 
-0.000153063     0.660984     -169.540 
0.000113193      1.42762     -65.5893 
7.67192e-05      3.80237      25.2172 
-3.89480e-05      3.77011     -63.0272 
-3.89622e-05      4.21900      174.560 
-0.000336024      6.37122     -174.325 
-0.000359147      6.34521      158.165 
0.000251822      4.93844      143.896 
0.000223763      4.34497      51.9168 
-0.000220459      4.09337      51.6462 
3.86384e-05      2.18014     -95.5275 
3.86090e-05      2.93421      117.613 
-0.000187360      3.69352      141.486 
-7.55705e-05      4.51852     -166.302 
-0.000578320      2.67367      31.0740 
-0.000224150      4.07383      173.800 
0.000285039      3.44511      164.511 
-0.000112273      3.25085     -108.658 
7.47811e-05      6.43302     -140.867 
0.000181228     0.570088     -21.6148 
-7.65139e-05      5.43725     -145.112 
3.83233e-05     0.983107     -80.6335 
-0.000146413      6.37182     -149.854 
-0.000329013      3.77001     -63.3670 
-7.52745e-05     0.799062     -171.363 
0.000149918      1.61450      116.089 
-0.000147767      4.19011      174.385 
0.000292819      4.22985      104.233 
-0.000179413      2.13357     -41.0091 
-0.000110761      1.24788     -68.3691 
0.000107517      1.60801     -98.5836 
0.000389966      5.05542     -128.978 
0.000144124      2.20538     -145.157 
-3.78696e-05      3.27434     -58.1059 
0.000248384      1.11826      27.7108 
0.000220494      1.89763     -42.0097 
-0.000145087      3.00466     -11.9083 
0.000175609      4.71581     -60.3907 
0.000148888      6.48787      166.178 
0.000284159      3.94255     -61.3547 
-0.000492469      4.69503     -114.272 
-0.000424873      3.84678      59.3683 
-7.27789e-05     0.698570     -113.629 
0.000284203      2.93471      118.050 
-3.74172e-05      2.06652      117.681 
-0.000180967      3.39053     -149.123 
-0.000175543      6.55520      137.720 
-3.73012e-05      6.06601      126.757 
-0.000141128      2.38411      40.2364 
7.37120e-05      5.52153      122.049 
3.71943e-05      6.38631     -151.268 
-0.000108711      4.57482      140.499 
-0.000245493      2.26153     -49.1239 
3.70639e-05      2.15232     -92.6630 
7.28675e-05      4.11291     -69.8027 
-3.68694e-05      3.29735      77.5654 
0.000141075      3.86897      133.639 
3.68270e-05      5.67325     -161.182 
-3.67700e-05      1.16966      7.36805 
-0.000107287      4.03600     -139.522 
-0.000314860      2.96007     -59.1026 
0.000108405      1.61012      115.769 
0.000209682      5.42271     -55.5187 
0.000351654      6.49758      166.199 
-0.000279958      3.93878     -50.9767 
0.000245372      3.97887      42.1478 
7.18464e-05      3.81142      25.1531 
-0.000106218     0.670820     -169.695 
0.000106435      4.37224     -74.3426 
7.18910e-05      1.86593     -151.512 
-0.000107003      4.08025      155.068 
0.000488128      6.12237     -153.309 
7.07619e-05      2.29262     -101.065 
-0.000242405      5.23928     -54.3988 
-0.000242668      4.74979     -156.025 
-0.000206383      5.06504      175.584 
0.000139437      5.51623      121.961 
0.000174674      3.61415     -46.2332 
-0.000207075      4.52642     -76.9769 
7.05185e-05      4.87201     -88.3533 
0.000141112      2.14255     -135.189 
-3.58780e-05     0.789177     -171.254 
-6.97177e-05      3.13465      15.5437 
-0.000104876      3.65662      93.4493 
0.000104700      4.21474     -82.6389 
7.02654e-05      4.92310     -97.5870 
-3.57522e-05      5.44546     -145.172 
-0.000173920      2.54558      98.1301 
-6.96288e-05      3.22816      165.835 
-0.000311016      4.11254      173.998 
7.01247e-05      4.24708      172.423 
-0.000173733      5.71869      148.005 
-0.000171652      3.68570      141.389 
0.000104552      6.93017     -135.702 
-6.98382e-05      1.69296      93.3863 
0.000104776      1.60580      115.448 
0.000172388      4.35115      51.8132 
-0.000103297      2.71428     -99.1153 
0.000172452      1.90507     -41.8084 
3.52209e-05     0.524976      49.6355 
-6.88540e-05      1.24423     -68.7972 
3.51041e-05      1.06400      126.978 
0.000239834      1.27910     -25.9641 
3.50689e-05      5.37703      67.0113 
-6.90691e-05      1.23976     -102.579 
0.000102210      5.66379     -161.149 
-3.49465e-05     0.639531     -170.096 
-3.48899e-05      6.36318     -149.808 
-0.000135829      6.36127     -174.316 
0.000169802      4.23954      104.200 
0.000135792      1.95556      145.416 
0.000271126      5.97857     -136.966 
-3.47805e-05      3.59323     -144.629 
0.000169609      4.62759     -137.102 
-6.82775e-05      2.09862      174.806 
0.000170161      5.33655     -175.486 
-0.000102024     0.584637      102.848 
3.46858e-05      1.06607      126.225 
-0.000135449      4.09420      155.313 
3.46256e-05      3.15995     -129.736 
-3.45354e-05      2.87795      148.353 
-3.45096e-05      4.15130      174.193 
-0.000101874      5.26852      135.846 
-0.000135111      5.81285     -134.303 
6.86186e-05      4.64039      78.0605 
-0.000168518      3.58508     -144.537 
-0.000101062      3.02220     -11.6446 
-3.42401e-05      4.05010     -139.506 
3.42223e-05      3.06624      81.1828 
0.000134824      2.14965     -135.377 
-6.77029e-05      7.65032      139.878 
-6.78349e-05      3.38195     -149.036 
-3.41042e-05      4.07313      51.7796 
-3.40901e-05      3.76554     -63.5030 
6.76785e-05      1.06019      125.789 
6.77089e-05      5.39015      66.9549 
3.40571e-05     0.518556      50.4774 
3.40475e-05      3.82047      25.0894 
6.70505e-05      3.17404     -129.759 
3.38703e-05      6.42518     -158.546 
3.38560e-05      1.60153      115.125 
-6.72230e-05      4.14135      174.179 
6.71922e-05      4.42526      65.2882 
-3.38037e-05      3.32670     -128.041 
-3.37466e-05     0.779295     -171.142 
3.37532e-05      2.41367      105.130 
3.37203e-05      4.10946     -69.9335 
3.37315e-05      4.22859      172.253 
3.37128e-05     0.981529     -81.2095 
-3.37002e-05      1.99324      106.617 
-0.000100268      2.69596      31.0367 
-3.36835e-05     0.520000      0.00000 
-3.36439e-05      6.34086     -149.796 
-3.36254e-05      5.48402     -145.325 
0.000100269      6.53407      166.368 
3.35531e-05      6.25157      178.717 
3.35618e-05      5.63507      152.980 
-3.35572e-05      4.04250     -139.414 
-3.35157e-05      3.24766     -108.491 
-3.35126e-05      1.25603     -37.2348 
3.34912e-05      4.62650      78.2772 
-6.67625e-05      3.76563     -63.8432 
3.34981e-05      1.59013      113.341 
3.34425e-05      3.93605     -115.589 
-9.98524e-05      6.05696     -154.789 
3.34566e-05      2.30634     -101.505 
-6.66965e-05      2.85659     -141.967 
-3.34114e-05      6.86202      149.623 
-3.33895e-05      2.12603     -41.1859 
3.33329e-05      4.86263     -88.1144 
3.33401e-05      2.28954      128.972 
3.33225e-05      1.87473     -151.658 
3.32825e-05      2.93002      117.877 
6.64483e-05      6.10894     -153.351 
-3.31319e-05      7.64268      139.830 
